Data from AuAgCoreShell_UA_100uM_CRN_0uM_R6G_10uM_Scan_RamanShift__11__14-22-09-776.txt Node

Date: Thu Jun 23 14:22:09 BST 2022
User: TCL
Spectrometer: QEP01345
Trigger mode: 4
Integration Time (sec): 7.000000E0
Scans to average: 10
Electric dark correction enabled: true
Nonlinearity correction enabled: false
Boxcar width: 0
XAxis mode: Raman Shifts
Number of Pixels in Spectrum: 1044
>>>>>Begin Spectral Data<<<<<
46.04893	-0.95
50.45542	-0.65
54.85868	-0.15
59.25871	0.45
63.6555	33.65
68.04907	36.75
72.43941	36.05
76.82654	41.15
81.21044	48.55
85.59113	51.05
89.96862	54.25
94.34289	52.95
98.71396	58.65
103.08183	55.85
107.4465	57.95
111.80798	54.45
116.16626	59.55
120.52136	58.25
124.87327	60.85
129.222	57.45
133.56755	54.35
137.90993	54.75
142.24913	53.55
146.58517	51.65
150.91804	56.95
155.24774	52.95
159.57429	60.25
163.89768	55.95
168.21792	62.35
172.53501	73.55
176.84895	81.75
181.15975	97.45
185.46741	123.85
189.77193	157.45
194.07331	200.15
198.37157	249.95
202.6667	306.85
206.9587	345.15
211.24758	395.45
215.53334	443.35
219.81599	499.45
224.09553	559.35
228.37195	615.85
232.64527	687.35
236.91549	754.45
241.18261	822.45
245.44663	881.95
249.70755	952.65
253.96539	1008.35
258.22014	1050.15
262.4718	1090.85
266.72039	1105.25
270.96589	1103.95
275.20832	1108.85
279.44768	1087.65
283.68397	1069.65
287.91719	1044.35
292.14735	1020.95
296.37445	1002.45
300.59849	997.35
304.81948	992.45
309.03742	986.75
313.25231	984.75
317.46415	968.05
321.67296	957.85
325.87872	958.95
330.08145	952.45
334.28114	952.95
338.47781	951.35
342.67145	968.95
346.86207	994.35
351.04966	1007.95
355.23424	1020.05
359.4158	1036.85
363.59435	1051.45
367.76989	1059.05
371.94243	1074.35
376.11196	1073.75
380.27849	1081.35
384.44203	1086.35
388.60257	1097.25
392.76012	1103.15
396.91468	1117.85
401.06626	1124.95
405.21485	1125.75
409.36047	1136.35
413.50311	1135.15
417.64277	1124.05
421.77947	1122.05
425.9132	1121.35
430.04396	1124.85
434.17176	1134.55
438.2966	1139.65
442.41849	1149.35
446.53742	1158.05
450.6534	1169.95
454.76644	1182.35
458.87653	1187.95
462.98368	1189.45
467.08789	1186.65
471.18916	1185.15
475.2875	1188.05
479.38291	1185.75
483.4754	1196.05
487.56496	1194.45
491.6516	1205.55
495.73531	1203.75
499.81612	1204.25
503.89401	1202.15
507.96899	1196.25
512.04106	1202.35
516.11023	1196.65
520.1765	1191.45
524.23987	1191.45
528.30034	1184.05
532.35792	1178.55
536.41261	1176.05
540.46441	1176.85
544.51333	1168.65
548.55936	1163.25
552.60252	1163.85
556.64279	1171.05
560.6802	1171.55
564.71473	1166.15
568.7464	1183.95
572.7752	1181.65
576.80114	1170.65
580.82422	1171.75
584.84444	1186.95
588.86181	1185.05
592.87633	1192.45
596.888	1195.65
600.89682	1212.15
604.9028	1244.65
608.90594	1313.05
612.90624	1407.55
616.90371	1387.95
620.89834	1304.45
624.89015	1271.65
628.87913	1264.45
632.86528	1284.35
636.84862	1294.15
640.82913	1285.45
644.80683	1255.85
648.78172	1239.55
652.75379	1223.75
656.72306	1229.45
660.68952	1236.75
664.65319	1225.45
668.61405	1223.65
672.57211	1225.05
676.52738	1222.15
680.47986	1245.65
684.42955	1273.45
688.37646	1282.75
692.32058	1278.85
696.26192	1251.85
700.20048	1247.65
704.13626	1225.35
708.06928	1222.35
711.99952	1224.05
715.927	1230.65
719.85171	1232.25
723.77365	1223.35
727.69284	1216.75
731.60928	1213.45
735.52295	1207.25
739.43388	1203.75
743.34206	1200.25
747.24749	1205.25
751.15017	1204.25
755.05012	1199.25
758.94733	1214.05
762.8418	1227.35
766.73354	1270.25
770.62254	1306.05
774.50882	1328.35
778.39237	1308.55
782.27321	1267.95
786.15132	1235.15
790.02671	1230.85
793.89938	1216.95
797.76935	1217.25
801.6366	1223.15
805.50115	1228.75
809.36299	1238.95
813.22213	1245.55
817.07857	1234.35
820.93231	1221.45
824.78336	1206.75
828.63172	1195.45
832.47738	1197.25
836.32036	1191.75
840.16066	1200.35
843.99827	1198.65
847.8332	1197.65
851.66546	1190.75
855.49504	1175.15
859.32195	1186.05
863.1462	1181.15
866.96777	1168.65
870.78668	1182.55
874.60293	1192.95
878.41652	1192.35
882.22745	1203.95
886.03573	1217.25
889.84136	1220.25
893.64433	1218.55
897.44466	1222.95
901.24235	1215.85
905.0374	1219.45
908.8298	1206.35
912.61957	1213.35
916.40671	1226.85
920.19121	1229.25
923.97308	1249.05
927.75233	1235.35
931.52895	1233.65
935.30295	1230.25
939.07433	1219.05
942.84309	1190.85
946.60924	1189.55
950.37278	1179.25
954.13371	1160.35
957.89203	1150.65
961.64774	1142.75
965.40086	1139.95
969.15137	1129.65
972.89929	1117.45
976.64461	1116.05
980.38733	1114.65
984.12747	1108.35
987.86502	1091.15
991.59999	1104.35
995.33237	1097.85
999.06217	1102.15
1002.78939	1121.85
1006.51404	1120.05
1010.23611	1130.45
1013.95561	1135.65
1017.67255	1149.55
1021.38692	1135.65
1025.09872	1134.35
1028.80796	1124.75
1032.51465	1129.65
1036.21877	1120.45
1039.92035	1111.85
1043.61937	1106.55
1047.31584	1103.35
1051.00976	1096.15
1054.70114	1091.25
1058.38998	1106.25
1062.07627	1100.35
1065.76003	1103.75
1069.44126	1113.55
1073.11995	1119.45
1076.79611	1120.75
1080.46974	1126.25
1084.14085	1108.05
1087.80943	1103.85
1091.47549	1105.15
1095.13903	1098.65
1098.80005	1075.75
1102.45857	1066.05
1106.11456	1068.95
1109.76805	1065.65
1113.41903	1079.85
1117.06751	1087.75
1120.71348	1104.35
1124.35696	1126.45
1127.99793	1149.15
1131.63641	1166.85
1135.2724	1171.95
1138.90589	1168.75
1142.5369	1149.85
1146.16542	1119.45
1149.79145	1096.45
1153.415	1075.85
1157.03607	1063.85
1160.65467	1052.75
1164.27079	1060.25
1167.88443	1059.45
1171.49561	1075.95
1175.10432	1109.65
1178.71056	1135.15
1182.31434	1172.85
1185.91565	1173.85
1189.51451	1160.85
1193.11091	1139.45
1196.70485	1122.25
1200.29634	1116.25
1203.88538	1114.35
1207.47197	1099.85
1211.05612	1083.65
1214.63782	1057.55
1218.21708	1052.75
1221.79391	1052.35
1225.36829	1053.05
1228.94024	1048.75
1232.50976	1045.95
1236.07685	1039.65
1239.6415	1052.35
1243.20374	1046.95
1246.76355	1044.55
1250.32093	1060.35
1253.8759	1061.25
1257.42845	1068.55
1260.97859	1065.65
1264.52631	1084.45
1268.07163	1084.15
1271.61453	1094.55
1275.15503	1094.85
1278.69312	1092.35
1282.22882	1094.25
1285.76211	1093.75
1289.29301	1112.55
1292.82151	1127.15
1296.34761	1132.45
1299.87133	1164.15
1303.39266	1189.35
1306.9116	1234.25
1310.42815	1264.85
1313.94233	1285.65
1317.45412	1258.65
1320.96354	1233.75
1324.47058	1196.95
1327.97525	1169.65
1331.47754	1153.15
1334.97747	1133.75
1338.47502	1145.65
1341.97022	1154.25
1345.46305	1178.55
1348.95352	1234.45
1352.44163	1271.25
1355.92738	1332.45
1359.41078	1407.55
1362.89183	1486.25
1366.37053	1495.65
1369.84688	1405.35
1373.32088	1310.15
1376.79254	1255.65
1380.26186	1222.45
1383.72883	1197.35
1387.19347	1174.75
1390.65578	1156.45
1394.11575	1154.85
1397.57339	1138.95
1401.0287	1119.25
1404.48168	1114.15
1407.93234	1102.05
1411.38068	1088.95
1414.82669	1080.45
1418.27039	1078.95
1421.71177	1063.15
1425.15083	1052.85
1428.58758	1040.55
1432.02203	1026.45
1435.45416	1015.35
1438.88399	1007.85
1442.31151	1001.65
1445.73673	986.35
1449.15965	989.55
1452.58027	974.65
1455.9986	979.75
1459.41463	967.45
1462.82837	973.35
1466.23982	974.55
1469.64898	985.05
1473.05586	984.45
1476.46045	984.25
1479.86276	992.65
1483.26279	989.75
1486.66054	996.35
1490.05602	1007.45
1493.44922	1014.05
1496.84016	1034.95
1500.22882	1063.65
1503.61521	1112.35
1506.99934	1172.35
1510.38121	1219.35
1513.76081	1234.35
1517.13816	1201.25
1520.51324	1136.55
1523.88607	1069.65
1527.25665	1029.25
1530.62498	997.95
1533.99105	997.75
1537.35488	983.65
1540.71647	976.25
1544.07581	981.15
1547.4329	978.85
1550.78776	995.35
1554.14038	992.35
1557.49077	991.65
1560.83892	1000.25
1564.18484	1002.05
1567.52853	1013.85
1570.86999	1028.55
1574.20922	1041.25
1577.54624	1043.25
1580.88103	1041.85
1584.2136	1017.55
1587.54395	972.95
1590.87208	959.15
1594.19801	948.75
1597.52172	948.85
1600.84321	945.15
1604.16251	931.65
1607.47959	928.75
1610.79447	916.55
1614.10715	905.55
1617.41763	896.75
1620.7259	884.35
1624.03199	878.85
1627.33587	886.45
1630.63757	880.75
1633.93707	883.35
1637.23439	892.35
1640.52951	898.75
1643.82246	926.05
1647.11321	961.45
1650.40179	988.85
1653.68819	986.15
1656.97241	944.35
1660.25446	904.55
1663.53433	856.15
1666.81203	834.45
1670.08756	820.15
1673.36092	807.25
1676.63211	792.25
1679.90115	795.65
1683.16801	781.85
1686.43272	779.95
1689.69527	775.95
1692.95567	775.45
1696.2139	763.35
1699.46999	768.35
1702.72392	757.75
1705.97571	741.25
1709.22535	733.25
1712.47284	715.35
1715.71819	709.55
1718.96139	695.65
1722.20246	688.45
1725.44139	681.95
1728.67818	673.65
1731.91284	652.55
1735.14537	657.55
1738.37576	653.75
1741.60403	647.05
1744.83017	636.55
1748.05418	635.35
1751.27607	624.05
1754.49584	626.35
1757.71349	625.15
1760.92903	618.65
1764.14244	611.95
1767.35375	617.75
1770.56294	610.35
1773.77002	618.35
1776.97499	608.05
1780.17785	610.45
1783.37861	607.15
1786.57727	600.75
1789.77382	594.75
1792.96828	596.85
1796.16064	593.35
1799.3509	592.55
1802.53907	588.75
1805.72514	589.35
1808.90913	589.45
1812.09102	577.75
1815.27083	575.55
1818.44856	576.65
1821.6242	574.35
1824.79776	568.75
1827.96924	565.55
1831.13864	564.65
1834.30597	564.55
1837.47122	568.15
1840.6344	563.15
1843.7955	560.65
1846.95454	556.35
1850.11151	560.05
1853.26642	550.85
1856.41926	560.05
1859.57004	554.75
1862.71876	549.65
1865.86542	545.65
1869.01003	553.25
1872.15258	546.45
1875.29308	544.95
1878.43152	540.85
1881.56792	537.35
1884.70227	540.65
1887.83457	538.55
1890.96482	545.05
1894.09304	533.85
1897.21921	531.95
1900.34335	530.85
1903.46544	523.05
1906.58551	526.75
1909.70353	530.35
1912.81953	527.35
1915.93349	519.85
1919.04543	519.15
1922.15534	522.45
1925.26322	518.95
1928.36908	515.25
1931.47292	513.85
1934.57473	519.05
1937.67453	513.05
1940.77232	511.45
1943.86808	507.35
1946.96184	509.05
1950.05358	505.35
1953.14331	499.25
1956.23103	494.45
1959.31675	499.95
1962.40046	494.65
1965.48217	498.05
1968.56188	488.65
1971.63959	491.35
1974.7153	486.85
1977.78901	488.75
1980.86073	484.65
1983.93046	478.05
1986.99819	480.95
1990.06394	473.65
1993.1277	471.55
1996.18947	472.65
1999.24925	467.85
2002.30706	466.55
2005.36288	465.65
2008.41672	461.65
2011.46859	462.95
2014.51848	457.25
2017.56639	460.25
2020.61233	454.05
2023.6563	459.05
2026.6983	452.45
2029.73833	444.45
2032.7764	449.35
2035.8125	446.95
2038.84664	444.65
2041.87881	442.75
2044.90903	440.65
2047.93729	442.45
2050.96359	445.05
2053.98794	436.15
2057.01034	439.65
2060.03078	439.15
2063.04927	437.25
2066.06582	442.65
2069.08042	438.85
2072.09307	437.85
2075.10378	437.25
2078.11255	433.75
2081.11938	438.65
2084.12426	438.85
2087.12722	435.55
2090.12824	435.25
2093.12732	435.95
2096.12447	434.95
2099.11969	433.15
2102.11299	434.15
2105.10435	432.65
2108.09379	431.35
2111.08131	433.15
2114.0669	428.35
2117.05057	433.65
2120.03233	436.25
2123.01216	436.35
2125.99008	437.15
2128.96609	431.45
2131.94018	434.75
2134.91236	436.15
2137.88263	438.45
2140.851	433.15
2143.81746	443.65
2146.78201	434.95
2149.74466	439.15
2152.7054	435.95
2155.66425	442.65
2158.6212	448.15
2161.57625	449.15
2164.52941	454.65
2167.48067	457.65
2170.43004	463.95
2173.37752	462.95
2176.32311	457.95
2179.26681	460.95
2182.20863	459.65
2185.14856	446.85
2188.08661	451.65
2191.02278	441.45
2193.95707	432.85
2196.88948	424.75
2199.82001	419.55
2202.74867	414.85
2205.67545	409.25
2208.60037	404.15
2211.52341	410.95
2214.44458	398.85
2217.36388	396.35
2220.28132	402.25
2223.1969	398.85
2226.11061	392.15
2229.02246	389.65
2231.93245	395.95
2234.84058	391.05
2237.74686	386.35
2240.65128	388.15
2243.55385	383.45
2246.45456	380.35
2249.35343	381.15
2252.25044	382.65
2255.14561	379.95
2258.03893	378.05
2260.93041	379.05
2263.82004	377.85
2266.70783	373.55
2269.59378	369.75
2272.4779	372.55
2275.36017	369.15
2278.24061	368.95
2281.11922	370.15
2283.996	369.25
2286.87094	368.55
2289.74405	371.25
2292.61534	359.95
2295.4848	365.35
2298.35243	363.85
2301.21824	362.05
2304.08223	359.85
2306.94439	365.55
2309.80474	357.45
2312.66327	351.85
2315.51999	352.45
2318.37489	351.65
2321.22797	354.75
2324.07925	352.05
2326.92871	358.45
2329.77637	360.45
2332.62222	351.85
2335.46626	347.45
2338.3085	346.55
2341.14893	346.15
2343.98756	343.35
2346.8244	345.15
2349.65943	339.95
2352.49267	346.45
2355.32411	338.45
2358.15376	342.75
2360.98161	339.35
2363.80768	341.85
2366.63195	340.15
2369.45444	338.15
2372.27514	336.85
2375.09405	337.85
2377.91118	335.35
2380.72652	323.45
2383.54009	332.25
2386.35187	330.25
2389.16188	325.05
2391.97011	332.25
2394.77657	328.95
2397.58125	325.15
2400.38416	329.05
2403.18529	324.15
2405.98466	323.45
2408.78226	319.95
2411.57809	320.95
2414.37216	321.45
2417.16446	322.15
2419.955	321.25
2422.74378	326.05
2425.5308	314.75
2428.31606	319.15
2431.09956	321.65
2433.88131	316.05
2436.6613	312.45
2439.43954	307.85
2442.21603	317.95
2444.99077	315.55
2447.76377	313.45
2450.53501	313.85
2453.30451	312.05
2456.07226	311.15
2458.83827	309.55
2461.60254	308.35
2464.36507	304.15
2467.12586	304.05
2469.88492	301.45
2472.64224	305.15
2475.39782	294.75
2478.15167	297.05
2480.90379	301.25
2483.65417	302.45
2486.40283	295.25
2489.14976	298.85
2491.89497	301.15
2494.63845	299.45
2497.3802	299.55
2500.12024	301.55
2502.85855	298.15
2505.59514	295.75
2508.33002	300.15
2511.06318	295.25
2513.79462	293.35
2516.52435	288.85
2519.25237	282.15
2521.97867	290.25
2524.70327	289.55
2527.42616	289.75
2530.14734	287.05
2532.86681	287.15
2535.58458	288.95
2538.30065	291.25
2541.01501	281.95
2543.72768	284.05
2546.43864	280.75
2549.14791	280.65
2551.85548	284.65
2554.56136	276.55
2557.26554	283.35
2559.96803	283.15
2562.66883	279.15
2565.36794	276.65
2568.06536	280.45
2570.7611	278.65
2573.45514	271.95
2576.14751	276.45
2578.83819	273.85
2581.52719	276.25
2584.21451	275.05
2586.90015	272.15
2589.58411	273.75
2592.2664	268.95
2594.94701	270.25
2597.62594	268.05
2600.30321	268.35
2602.9788	267.15
2605.65273	258.75
2608.32498	266.45
2610.99557	259.85
2613.66449	260.25
2616.33175	262.55
2618.99734	259.05
2621.66128	261.85
2624.32355	261.95
2626.98416	263.15
2629.64311	260.45
2632.30041	261.05
2634.95605	256.55
2637.61004	263.35
2640.26238	259.15
2642.91306	254.05
2645.56209	255.25
2648.20948	257.95
2650.85521	256.45
2653.4993	257.05
2656.14175	250.65
2658.78255	260.45
2661.42171	259.05
2664.05923	258.65
2666.6951	254.65
2669.32934	252.85
2671.96194	254.15
2674.59291	258.05
2677.22224	255.95
2679.84993	259.05
2682.476	254.75
2685.10043	251.95
2687.72324	249.85
2690.34441	252.65
2692.96396	256.85
2695.58188	253.05
2698.19818	252.35
2700.81285	252.15
2703.4259	258.55
2706.03733	248.95
2708.64714	252.65
2711.25533	250.25
2713.86191	249.35
2716.46687	253.45
2719.07021	248.45
2721.67194	252.15
2724.27206	253.85
2726.87057	251.35
2729.46747	252.85
2732.06276	249.65
2734.65644	252.95
2737.24852	250.75
2739.83899	248.85
2742.42786	250.35
2745.01513	246.15
2747.60079	252.15
2750.18486	250.35
2752.76733	251.45
2755.3482	252.45
2757.92747	250.75
2760.50515	252.05
2763.08123	240.85
2765.65573	247.15
2768.22863	248.55
2770.79994	247.25
2773.36967	246.25
2775.9378	244.65
2778.50435	244.75
2781.06932	239.25
2783.6327	241.45
2786.1945	238.25
2788.75471	241.55
2791.31335	245.35
2793.87041	238.15
2796.42589	235.95
2798.97979	236.05
2801.53212	238.55
2804.08288	236.75
2806.63206	235.05
2809.17967	235.75
2811.72571	234.95
2814.27018	238.55
2816.81308	235.05
2819.35442	235.65
2821.89419	232.75
2824.43239	236.25
2826.96904	237.65
2829.50412	232.15
2832.03763	228.15
2834.56959	239.35
2837.1	235.25
2839.62884	232.85
2842.15613	236.45
2844.68186	235.85
2847.20604	235.15
2849.72867	234.05
2852.24974	236.05
2854.76927	232.55
2857.28724	235.75
2859.80367	236.75
2862.31855	234.05
2864.83189	231.65
2867.34368	234.75
2869.85393	233.45
2872.36264	236.65
2874.8698	234.85
2877.37543	231.35
2879.87952	235.25
2882.38207	232.35
2884.88308	231.05
2887.38256	231.85
2889.88051	234.85
2892.37692	233.45
2894.8718	234.45
2897.36515	235.75
2899.85698	242.25
2902.34727	238.65
2904.83604	243.75
2907.32328	245.45
2909.809	248.35
2912.29319	246.15
2914.77587	249.95
2917.25702	249.85
2919.73665	253.75
2922.21476	251.55
2924.69136	253.55
2927.16644	253.85
2929.64	248.25
2932.11205	251.15
2934.58258	254.65
2937.05161	257.15
2939.51912	256.55
2941.98513	254.25
2944.44962	257.65
2946.91261	257.45
2949.37409	257.45
2951.83407	256.45
2954.29254	251.85
2956.74951	254.95
2959.20498	252.85
2961.65895	257.75
2964.11142	248.65
2966.56239	259.05
2969.01186	253.75
2971.45984	253.45
2973.90632	257.55
2976.35131	260.65
2978.7948	256.05
2981.23681	255.95
2983.67732	257.45
2986.11635	256.55
2988.55388	255.25
2990.98993	262.25
2993.4245	262.55
2995.85758	254.35
2998.28917	258.25
3000.71928	262.35
3003.14791	267.05
3005.57506	264.85
3008.00073	259.15
3010.42493	269.35
3012.84764	270.05
3015.26888	275.55
3017.68865	267.75
3020.10694	272.45
3022.52376	271.45
3024.9391	278.35
3027.35298	273.95
3029.76539	278.55
3032.17632	284.85
3034.5858	280.45
3036.9938	286.45
3039.40034	290.25
3041.80542	285.45
3044.20903	290.45
3046.61118	294.95
3049.01187	298.15
3051.4111	297.95
3053.80888	296.95
3056.20519	301.95
3058.60005	303.45
3060.99345	307.75
3063.3854	310.15
3065.7759	319.35
3068.16494	313.65
3070.55254	319.45
3072.93868	322.85
3075.32338	326.55
3077.70662	327.95
3080.08842	328.25
3082.46878	332.85
3084.84769	338.25
3087.22515	342.95
3089.60118	345.75
3091.97576	346.65
3094.3489	359.35
3096.72061	355.65
3099.09087	365.25
3101.4597	366.05
3103.82709	372.35
3106.19305	377.05
3108.55757	380.25
3110.92066	389.75
3113.28232	391.65
3115.64255	394.55
3118.00134	396.65
3120.35871	403.75
3122.71466	413.55
3125.06917	416.05
3127.42226	416.45
3129.77393	425.75
3132.12417	434.15
3134.47299	434.75
3136.82039	442.35
3139.16636	446.25
3141.51092	450.95
3143.85406	461.45
3146.19579	457.65
3148.53609	471.75
3150.87499	479.45
3153.21246	482.25
3155.54853	492.75
3157.88318	495.05
3160.21642	502.65
3162.54826	502.55
3164.87868	516.05
3167.2077	521.25
3169.5353	523.55
3171.86151	538.65
3174.18631	536.55
3176.5097	545.85
3178.83169	550.65
3181.15228	560.25
3183.47147	561.45
3185.78926	561.45
3188.10565	572.35
3190.42065	578.75
3192.73424	582.75
3195.04645	586.25
3197.35725	588.45
3199.66667	598.65
3201.97469	597.35
3204.28132	598.85
3206.58656	602.95
3208.8904	617.45
3211.19287	614.95
3213.49394	612.65
3215.79363	618.95
3218.09193	625.65
3220.38884	624.65
3222.68438	626.35
3224.97853	632.55
3227.2713	635.75
3229.56269	643.35
3231.8527	644.25
3234.14133	639.05
3236.42858	644.15
3238.71446	647.15
3240.99896	650.25
3243.28209	649.15
3245.56384	642.15
3247.84423	645.95
3250.12324	650.05
3252.40088	641.45
3254.67715	645.25
3256.95205	649.85
3259.22558	657.85
3261.49775	650.85
3263.76855	653.25
3266.03799	649.35
3268.30606	652.45
3270.57277	659.95
3272.83812	651.55
3275.10211	660.15
3277.36474	650.45
3279.62601	653.05
3281.88593	652.75
3284.14448	658.35
3286.40168	652.55
3288.65753	651.25
3290.91202	652.85
3293.16516	652.65
3295.41695	646.75
3297.66738	649.75
3299.91647	648.25
3302.16421	651.25
3304.4106	651.95
3306.65564	641.95
3308.89933	640.05
3311.14169	630.65
3313.38269	631.35
3315.62236	634.65
3317.86068	627.25
3320.09766	623.35
3322.3333	623.55
3324.5676	619.95
3326.80056	609.15
3329.03219	610.55
3331.26248	-0.05
3333.49143	-0.15
3335.71905	0.65
