Data from AgNPs_FTO_APTES_UA_0uM_R6G_10uM_NaF_0.1M_Addition_RamanShift__24__10-23-07-104.txt Node

Date: Fri Dec 17 10:23:07 GMT 2021
User: TCL
Spectrometer: QEP01345
Trigger mode: 4
Integration Time (sec): 7.000000E0
Scans to average: 10
Electric dark correction enabled: true
Nonlinearity correction enabled: false
Boxcar width: 0
XAxis mode: Raman Shifts
Number of Pixels in Spectrum: 1044
>>>>>Begin Spectral Data<<<<<
46.04893	0.6125
50.45542	0.0125
54.85868	-0.4875
59.25871	1.2125
63.6555	32.4125
68.04907	33.0125
72.43941	35.6125
76.82654	38.6125
81.21044	39.1125
85.59113	42.6125
89.96862	46.5125
94.34289	48.1125
98.71396	48.4125
103.08183	48.8125
107.4465	46.1125
111.80798	47.2125
116.16626	50.7125
120.52136	43.6125
124.87327	51.8125
129.222	50.2125
133.56755	49.1125
137.90993	50.5125
142.24913	51.5125
146.58517	50.1125
150.91804	57.8125
155.24774	63.1125
159.57429	69.5125
163.89768	82.7125
168.21792	102.1125
172.53501	120.7125
176.84895	156.4125
181.15975	204.6125
185.46741	273.7125
189.77193	375.2125
194.07331	477.1125
198.37157	616.2125
202.6667	749.8125
206.9587	877.3125
211.24758	1017.9125
215.53334	1153.3125
219.81599	1285.8125
224.09553	1460.6125
228.37195	1634.5125
232.64527	1821.5125
236.91549	2033.2125
241.18261	2209.0125
245.44663	2360.0125
249.70755	2482.1125
253.96539	2573.0125
258.22014	2665.7125
262.4718	2721.6125
266.72039	2780.2125
270.96589	2803.1125
275.20832	2803.3125
279.44768	2756.3125
283.68397	2696.0125
287.91719	2648.2125
292.14735	2632.6125
296.37445	2671.6125
300.59849	2760.3125
304.81948	2884.2125
309.03742	2952.7125
313.25231	2950.9125
317.46415	2800.9125
321.67296	2596.0125
325.87872	2414.2125
330.08145	2354.3125
334.28114	2354.2125
338.47781	2368.6125
342.67145	2443.8125
346.86207	2565.4125
351.04966	2724.3125
355.23424	2912.3125
359.4158	3064.7125
363.59435	3127.9125
367.76989	3151.2125
371.94243	3163.6125
376.11196	3141.6125
380.27849	3123.8125
384.44203	3087.5125
388.60257	3034.4125
392.76012	2999.5125
396.91468	3007.2125
401.06626	3074.1125
405.21485	3118.9125
409.36047	3076.1125
413.50311	2923.4125
417.64277	2777.8125
421.77947	2698.7125
425.9132	2672.2125
430.04396	2661.3125
434.17176	2677.3125
438.2966	2735.5125
442.41849	2809.6125
446.53742	2887.1125
450.6534	2987.5125
454.76644	3032.1125
458.87653	3016.1125
462.98368	2982.5125
467.08789	2928.7125
471.18916	2855.1125
475.2875	2807.8125
479.38291	2733.9125
483.4754	2693.0125
487.56496	2653.5125
491.6516	2642.9125
495.73531	2624.8125
499.81612	2640.9125
503.89401	2663.3125
507.96899	2709.6125
512.04106	2763.4125
516.11023	2828.6125
520.1765	2886.6125
524.23987	2877.4125
528.30034	2815.9125
532.35792	2748.5125
536.41261	2677.7125
540.46441	2597.8125
544.51333	2560.3125
548.55936	2560.5125
552.60252	2605.6125
556.64279	2657.6125
560.6802	2688.1125
564.71473	2727.3125
568.7464	2821.5125
572.7752	2857.2125
576.80114	2745.2125
580.82422	2625.5125
584.84444	2572.1125
588.86181	2587.5125
592.87633	2623.8125
596.888	2669.2125
600.89682	2765.6125
604.9028	3067.4125
608.90594	3872.2125
612.90624	5003.7125
616.90371	4933.1125
620.89834	3507.4125
624.89015	2761.3125
628.87913	2583.0125
632.86528	2554.8125
636.84862	2593.1125
640.82913	2565.3125
644.80683	2507.3125
648.78172	2456.8125
652.75379	2498.3125
656.72306	2636.5125
660.68952	2790.6125
664.65319	2718.0125
668.61405	2528.0125
672.57211	2452.9125
676.52738	2430.0125
680.47986	2447.5125
684.42955	2432.3125
688.37646	2425.7125
692.32058	2446.0125
696.26192	2486.6125
700.20048	2549.7125
704.13626	2592.8125
708.06928	2590.2125
711.99952	2552.7125
715.927	2515.7125
719.85171	2507.1125
723.77365	2493.7125
727.69284	2474.4125
731.60928	2473.8125
735.52295	2471.0125
739.43388	2472.9125
743.34206	2490.0125
747.24749	2486.8125
751.15017	2496.1125
755.05012	2539.4125
758.94733	2630.4125
762.8418	2883.5125
766.73354	3333.4125
770.62254	3832.7125
774.50882	4181.9125
778.39237	4115.2125
782.27321	3625.7125
786.15132	3065.4125
790.02671	2750.3125
793.89938	2626.3125
797.76935	2589.2125
801.6366	2562.3125
805.50115	2522.3125
809.36299	2520.7125
813.22213	2507.8125
817.07857	2511.2125
820.93231	2513.3125
824.78336	2508.9125
828.63172	2510.4125
832.47738	2523.5125
836.32036	2513.7125
840.16066	2501.3125
843.99827	2494.5125
847.8332	2494.7125
851.66546	2499.1125
855.49504	2503.4125
859.32195	2491.6125
863.1462	2464.4125
866.96777	2448.6125
870.78668	2434.2125
874.60293	2431.8125
878.41652	2437.7125
882.22745	2454.9125
886.03573	2461.6125
889.84136	2456.1125
893.64433	2456.6125
897.44466	2458.7125
901.24235	2461.1125
905.0374	2460.5125
908.8298	2451.7125
912.61957	2440.1125
916.40671	2468.1125
920.19121	2482.7125
923.97308	2514.2125
927.75233	2537.0125
931.52895	2571.7125
935.30295	2562.6125
939.07433	2485.5125
942.84309	2429.1125
946.60924	2385.2125
950.37278	2344.5125
954.13371	2321.5125
957.89203	2305.1125
961.64774	2298.3125
965.40086	2294.0125
969.15137	2272.1125
972.89929	2266.9125
976.64461	2260.5125
980.38733	2258.7125
984.12747	2264.6125
987.86502	2250.3125
991.59999	2255.8125
995.33237	2259.3125
999.06217	2297.1125
1002.78939	2317.7125
1006.51404	2336.5125
1010.23611	2375.0125
1013.95561	2391.0125
1017.67255	2402.6125
1021.38692	2363.9125
1025.09872	2350.5125
1028.80796	2332.5125
1032.51465	2356.6125
1036.21877	2420.9125
1039.92035	2521.0125
1043.61937	2563.2125
1047.31584	2536.8125
1051.00976	2503.5125
1054.70114	2450.4125
1058.38998	2380.3125
1062.07627	2358.3125
1065.76003	2338.4125
1069.44126	2341.9125
1073.11995	2368.1125
1076.79611	2408.9125
1080.46974	2468.5125
1084.14085	2518.6125
1087.80943	2566.7125
1091.47549	2578.9125
1095.13903	2510.6125
1098.80005	2400.7125
1102.45857	2318.9125
1106.11456	2302.7125
1109.76805	2338.6125
1113.41903	2394.8125
1117.06751	2484.5125
1120.71348	2590.2125
1124.35696	2722.5125
1127.99793	2831.5125
1131.63641	2798.4125
1135.2724	2637.0125
1138.90589	2479.0125
1142.5369	2401.4125
1146.16542	2339.9125
1149.79145	2313.3125
1153.415	2315.9125
1157.03607	2339.5125
1160.65467	2386.8125
1164.27079	2469.3125
1167.88443	2586.5125
1171.49561	2817.3125
1175.10432	3168.3125
1178.71056	3685.9125
1182.31434	4033.4125
1185.91565	4108.2125
1189.51451	4016.6125
1193.11091	3754.3125
1196.70485	3438.0125
1200.29634	3195.5125
1203.88538	2992.6125
1207.47197	2754.1125
1211.05612	2580.3125
1214.63782	2476.6125
1218.21708	2458.7125
1221.79391	2453.0125
1225.36829	2445.6125
1228.94024	2444.3125
1232.50976	2446.0125
1236.07685	2454.3125
1239.6415	2465.4125
1243.20374	2492.1125
1246.76355	2519.2125
1250.32093	2554.7125
1253.8759	2610.0125
1257.42845	2694.0125
1260.97859	2796.4125
1264.52631	2900.2125
1268.07163	3012.1125
1271.61453	3105.2125
1275.15503	3130.5125
1278.69312	3098.7125
1282.22882	3077.2125
1285.76211	3122.1125
1289.29301	3228.3125
1292.82151	3342.3125
1296.34761	3461.0125
1299.87133	3622.2125
1303.39266	3885.6125
1306.9116	4307.0125
1310.42815	4826.2125
1313.94233	5120.3125
1317.45412	4982.1125
1320.96354	4565.1125
1324.47058	4075.8125
1327.97525	3677.5125
1331.47754	3431.3125
1334.97747	3349.6125
1338.47502	3361.3125
1341.97022	3449.6125
1345.46305	3623.3125
1348.95352	3953.4125
1352.44163	4455.1125
1355.92738	5107.9125
1359.41078	5935.4125
1362.89183	6686.1125
1366.37053	6571.7125
1369.84688	5613.4125
1373.32088	4616.9125
1376.79254	3908.4125
1380.26186	3486.6125
1383.72883	3254.0125
1387.19347	3089.8125
1390.65578	2900.6125
1394.11575	2734.2125
1397.57339	2638.3125
1401.0287	2592.9125
1404.48168	2580.6125
1407.93234	2602.0125
1411.38068	2626.3125
1414.82669	2625.6125
1418.27039	2628.5125
1421.71177	2613.0125
1425.15083	2602.5125
1428.58758	2614.7125
1432.02203	2648.1125
1435.45416	2702.5125
1438.88399	2736.0125
1442.31151	2728.4125
1445.73673	2717.1125
1449.15965	2693.9125
1452.58027	2659.4125
1455.9986	2600.6125
1459.41463	2567.1125
1462.82837	2556.3125
1466.23982	2603.5125
1469.64898	2652.0125
1473.05586	2696.9125
1476.46045	2730.0125
1479.86276	2775.2125
1483.26279	2827.0125
1486.66054	2891.5125
1490.05602	2964.1125
1493.44922	3063.9125
1496.84016	3264.3125
1500.22882	3665.6125
1503.61521	4219.2125
1506.99934	4853.3125
1510.38121	5479.3125
1513.76081	5780.8125
1517.13816	5475.9125
1520.51324	4694.5125
1523.88607	3908.0125
1527.25665	3364.0125
1530.62498	3119.2125
1533.99105	2977.5125
1537.35488	2876.7125
1540.71647	2812.9125
1544.07581	2798.9125
1547.4329	2783.5125
1550.78776	2790.8125
1554.14038	2778.6125
1557.49077	2812.7125
1560.83892	2852.1125
1564.18484	2946.6125
1567.52853	3082.8125
1570.86999	3250.5125
1574.20922	3389.0125
1577.54624	3403.4125
1580.88103	3204.1125
1584.2136	2898.9125
1587.54395	2700.5125
1590.87208	2682.8125
1594.19801	2778.8125
1597.52172	3004.3125
1600.84321	3121.1125
1604.16251	3060.5125
1607.47959	2857.4125
1610.79447	2660.1125
1614.10715	2454.4125
1617.41763	2287.8125
1620.7259	2183.6125
1624.03199	2151.5125
1627.33587	2138.5125
1630.63757	2147.9125
1633.93707	2214.4125
1637.23439	2331.4125
1640.52951	2524.0125
1643.82246	2839.2125
1647.11321	3267.0125
1650.40179	3609.5125
1653.68819	3594.6125
1656.97241	3142.4125
1660.25446	2596.9125
1663.53433	2213.6125
1666.81203	2002.8125
1670.08756	1888.9125
1673.36092	1812.6125
1676.63211	1766.9125
1679.90115	1740.0125
1683.16801	1717.8125
1686.43272	1693.9125
1689.69527	1677.0125
1692.95567	1665.1125
1696.2139	1661.7125
1699.46999	1637.3125
1702.72392	1635.1125
1705.97571	1620.4125
1709.22535	1613.5125
1712.47284	1609.1125
1715.71819	1612.5125
1718.96139	1613.8125
1722.20246	1601.8125
1725.44139	1599.8125
1728.67818	1576.5125
1731.91284	1551.4125
1735.14537	1527.4125
1738.37576	1517.0125
1741.60403	1484.5125
1744.83017	1482.6125
1748.05418	1476.4125
1751.27607	1460.6125
1754.49584	1452.4125
1757.71349	1455.3125
1760.92903	1458.1125
1764.14244	1444.5125
1767.35375	1426.4125
1770.56294	1432.0125
1773.77002	1425.8125
1776.97499	1408.1125
1780.17785	1404.0125
1783.37861	1388.8125
1786.57727	1396.2125
1789.77382	1378.8125
1792.96828	1384.7125
1796.16064	1372.4125
1799.3509	1377.2125
1802.53907	1375.5125
1805.72514	1355.8125
1808.90913	1363.5125
1812.09102	1347.7125
1815.27083	1350.8125
1818.44856	1340.1125
1821.6242	1338.7125
1824.79776	1334.6125
1827.96924	1334.0125
1831.13864	1324.7125
1834.30597	1320.1125
1837.47122	1321.7125
1840.6344	1312.4125
1843.7955	1321.8125
1846.95454	1313.1125
1850.11151	1301.1125
1853.26642	1308.7125
1856.41926	1298.5125
1859.57004	1303.5125
1862.71876	1299.6125
1865.86542	1295.4125
1869.01003	1296.3125
1872.15258	1300.4125
1875.29308	1284.6125
1878.43152	1283.7125
1881.56792	1288.0125
1884.70227	1286.1125
1887.83457	1287.7125
1890.96482	1280.5125
1894.09304	1279.7125
1897.21921	1279.7125
1900.34335	1280.7125
1903.46544	1266.7125
1906.58551	1269.7125
1909.70353	1271.6125
1912.81953	1267.9125
1915.93349	1269.2125
1919.04543	1277.0125
1922.15534	1260.9125
1925.26322	1254.9125
1928.36908	1248.6125
1931.47292	1242.0125
1934.57473	1242.0125
1937.67453	1237.8125
1940.77232	1233.6125
1943.86808	1213.0125
1946.96184	1223.6125
1950.05358	1217.5125
1953.14331	1212.5125
1956.23103	1208.3125
1959.31675	1199.4125
1962.40046	1196.7125
1965.48217	1192.7125
1968.56188	1197.7125
1971.63959	1189.7125
1974.7153	1184.3125
1977.78901	1185.5125
1980.86073	1176.6125
1983.93046	1181.4125
1986.99819	1170.5125
1990.06394	1160.8125
1993.1277	1154.6125
1996.18947	1155.7125
1999.24925	1156.2125
2002.30706	1139.9125
2005.36288	1134.1125
2008.41672	1134.4125
2011.46859	1129.9125
2014.51848	1124.0125
2017.56639	1121.9125
2020.61233	1113.5125
2023.6563	1111.4125
2026.6983	1111.0125
2029.73833	1104.5125
2032.7764	1094.5125
2035.8125	1094.9125
2038.84664	1098.0125
2041.87881	1096.2125
2044.90903	1081.3125
2047.93729	1086.7125
2050.96359	1087.1125
2053.98794	1084.8125
2057.01034	1083.7125
2060.03078	1075.4125
2063.04927	1080.2125
2066.06582	1083.3125
2069.08042	1072.4125
2072.09307	1072.9125
2075.10378	1071.9125
2078.11255	1069.5125
2081.11938	1071.6125
2084.12426	1076.0125
2087.12722	1067.2125
2090.12824	1066.0125
2093.12732	1076.5125
2096.12447	1081.1125
2099.11969	1070.6125
2102.11299	1071.3125
2105.10435	1071.6125
2108.09379	1071.3125
2111.08131	1065.9125
2114.0669	1063.2125
2117.05057	1071.6125
2120.03233	1060.3125
2123.01216	1057.2125
2125.99008	1063.0125
2128.96609	1063.2125
2131.94018	1070.7125
2134.91236	1056.0125
2137.88263	1063.9125
2140.851	1060.8125
2143.81746	1072.1125
2146.78201	1060.7125
2149.74466	1060.3125
2152.7054	1051.4125
2155.66425	1063.0125
2158.6212	1052.8125
2161.57625	1056.6125
2164.52941	1061.3125
2167.48067	1052.7125
2170.43004	1052.2125
2173.37752	1051.4125
2176.32311	1048.2125
2179.26681	1052.1125
2182.20863	1046.5125
2185.14856	1041.3125
2188.08661	1049.2125
2191.02278	1043.1125
2193.95707	1041.2125
2196.88948	1045.2125
2199.82001	1037.6125
2202.74867	1032.0125
2205.67545	1033.4125
2208.60037	1029.9125
2211.52341	1027.6125
2214.44458	1021.0125
2217.36388	1025.1125
2220.28132	1015.4125
2223.1969	1006.7125
2226.11061	1003.1125
2229.02246	1011.2125
2231.93245	1000.6125
2234.84058	1002.5125
2237.74686	998.2125
2240.65128	998.3125
2243.55385	998.7125
2246.45456	995.8125
2249.35343	993.5125
2252.25044	991.5125
2255.14561	994.5125
2258.03893	992.0125
2260.93041	985.0125
2263.82004	982.0125
2266.70783	973.0125
2269.59378	971.0125
2272.4779	977.9125
2275.36017	979.3125
2278.24061	970.1125
2281.11922	965.2125
2283.996	967.4125
2286.87094	957.3125
2289.74405	955.4125
2292.61534	955.3125
2295.4848	950.5125
2298.35243	955.1125
2301.21824	950.0125
2304.08223	951.6125
2306.94439	947.3125
2309.80474	943.7125
2312.66327	943.7125
2315.51999	931.8125
2318.37489	942.7125
2321.22797	929.9125
2324.07925	935.0125
2326.92871	938.4125
2329.77637	935.2125
2332.62222	938.0125
2335.46626	927.6125
2338.3085	924.3125
2341.14893	933.4125
2343.98756	923.1125
2346.8244	933.4125
2349.65943	927.5125
2352.49267	918.9125
2355.32411	920.0125
2358.15376	932.1125
2360.98161	926.0125
2363.80768	924.7125
2366.63195	928.7125
2369.45444	933.9125
2372.27514	927.7125
2375.09405	932.1125
2377.91118	926.4125
2380.72652	921.7125
2383.54009	921.7125
2386.35187	910.0125
2389.16188	911.4125
2391.97011	903.9125
2394.77657	895.3125
2397.58125	890.8125
2400.38416	896.3125
2403.18529	888.5125
2405.98466	888.4125
2408.78226	881.9125
2411.57809	881.9125
2414.37216	881.5125
2417.16446	881.7125
2419.955	877.9125
2422.74378	870.7125
2425.5308	872.5125
2428.31606	874.5125
2431.09956	872.1125
2433.88131	873.9125
2436.6613	874.3125
2439.43954	871.9125
2442.21603	869.4125
2444.99077	866.5125
2447.76377	867.5125
2450.53501	870.8125
2453.30451	876.0125
2456.07226	870.5125
2458.83827	873.8125
2461.60254	863.6125
2464.36507	871.6125
2467.12586	869.2125
2469.88492	860.9125
2472.64224	865.0125
2475.39782	865.7125
2478.15167	864.3125
2480.90379	866.1125
2483.65417	866.4125
2486.40283	865.2125
2489.14976	871.9125
2491.89497	875.1125
2494.63845	877.5125
2497.3802	870.0125
2500.12024	867.2125
2502.85855	865.6125
2505.59514	867.8125
2508.33002	860.7125
2511.06318	864.0125
2513.79462	848.2125
2516.52435	850.3125
2519.25237	842.3125
2521.97867	842.9125
2524.70327	836.5125
2527.42616	833.4125
2530.14734	831.5125
2532.86681	828.4125
2535.58458	827.0125
2538.30065	831.6125
2541.01501	826.7125
2543.72768	837.1125
2546.43864	836.6125
2549.14791	838.7125
2551.85548	845.0125
2554.56136	827.7125
2557.26554	824.4125
2559.96803	830.8125
2562.66883	841.4125
2565.36794	823.9125
2568.06536	830.1125
2570.7611	834.8125
2573.45514	825.2125
2576.14751	831.9125
2578.83819	825.5125
2581.52719	822.0125
2584.21451	823.9125
2586.90015	816.1125
2589.58411	823.7125
2592.2664	816.9125
2594.94701	815.2125
2597.62594	808.5125
2600.30321	809.6125
2602.9788	817.8125
2605.65273	812.1125
2608.32498	809.7125
2610.99557	812.1125
2613.66449	816.9125
2616.33175	816.3125
2618.99734	819.5125
2621.66128	810.4125
2624.32355	818.0125
2626.98416	810.0125
2629.64311	810.2125
2632.30041	817.1125
2634.95605	810.4125
2637.61004	818.9125
2640.26238	809.5125
2642.91306	804.1125
2645.56209	804.4125
2648.20948	802.7125
2650.85521	798.2125
2653.4993	805.5125
2656.14175	806.8125
2658.78255	819.5125
2661.42171	812.7125
2664.05923	816.0125
2666.6951	814.8125
2669.32934	810.7125
2671.96194	821.6125
2674.59291	833.5125
2677.22224	831.2125
2679.84993	835.8125
2682.476	839.7125
2685.10043	842.9125
2687.72324	841.2125
2690.34441	847.0125
2692.96396	849.9125
2695.58188	845.3125
2698.19818	853.1125
2700.81285	863.3125
2703.4259	867.2125
2706.03733	868.8125
2708.64714	878.2125
2711.25533	876.9125
2713.86191	888.0125
2716.46687	895.0125
2719.07021	902.1125
2721.67194	901.5125
2724.27206	902.9125
2726.87057	906.5125
2729.46747	906.9125
2732.06276	907.2125
2734.65644	910.7125
2737.24852	907.3125
2739.83899	911.5125
2742.42786	907.5125
2745.01513	920.0125
2747.60079	921.6125
2750.18486	928.4125
2752.76733	934.1125
2755.3482	924.2125
2757.92747	932.3125
2760.50515	939.9125
2763.08123	945.8125
2765.65573	952.8125
2768.22863	956.9125
2770.79994	963.6125
2773.36967	985.7125
2775.9378	996.5125
2778.50435	1001.4125
2781.06932	1009.6125
2783.6327	1030.8125
2786.1945	1054.3125
2788.75471	1058.9125
2791.31335	1071.3125
2793.87041	1096.5125
2796.42589	1111.5125
2798.97979	1145.4125
2801.53212	1149.6125
2804.08288	1176.2125
2806.63206	1196.6125
2809.17967	1227.7125
2811.72571	1246.4125
2814.27018	1265.8125
2816.81308	1281.8125
2819.35442	1299.1125
2821.89419	1308.9125
2824.43239	1315.4125
2826.96904	1318.7125
2829.50412	1322.1125
2832.03763	1322.8125
2834.56959	1327.5125
2837.1	1332.7125
2839.62884	1364.1125
2842.15613	1391.4125
2844.68186	1441.8125
2847.20604	1494.3125
2849.72867	1556.3125
2852.24974	1564.8125
2854.76927	1556.7125
2857.28724	1567.6125
2859.80367	1535.9125
2862.31855	1519.2125
2864.83189	1515.3125
2867.34368	1491.8125
2869.85393	1467.6125
2872.36264	1461.7125
2874.8698	1458.1125
2877.37543	1447.7125
2879.87952	1446.9125
2882.38207	1420.2125
2884.88308	1423.3125
2887.38256	1429.7125
2889.88051	1406.6125
2892.37692	1398.8125
2894.8718	1404.3125
2897.36515	1397.1125
2899.85698	1396.5125
2902.34727	1398.6125
2904.83604	1387.4125
2907.32328	1391.9125
2909.809	1374.2125
2912.29319	1373.0125
2914.77587	1358.6125
2917.25702	1354.9125
2919.73665	1345.2125
2922.21476	1339.4125
2924.69136	1337.2125
2927.16644	1328.0125
2929.64	1313.1125
2932.11205	1304.0125
2934.58258	1283.0125
2937.05161	1257.5125
2939.51912	1225.7125
2941.98513	1192.8125
2944.44962	1147.8125
2946.91261	1107.9125
2949.37409	1076.2125
2951.83407	1046.5125
2954.29254	1025.1125
2956.74951	999.8125
2959.20498	984.0125
2961.65895	960.4125
2964.11142	940.5125
2966.56239	934.1125
2969.01186	920.2125
2971.45984	901.7125
2973.90632	903.5125
2976.35131	885.3125
2978.7948	875.4125
2981.23681	865.5125
2983.67732	852.3125
2986.11635	847.7125
2988.55388	831.6125
2990.98993	824.5125
2993.4245	815.5125
2995.85758	810.2125
2998.28917	810.3125
3000.71928	803.0125
3003.14791	795.4125
3005.57506	800.7125
3008.00073	789.1125
3010.42493	784.2125
3012.84764	788.4125
3015.26888	788.2125
3017.68865	778.6125
3020.10694	786.4125
3022.52376	786.4125
3024.9391	776.2125
3027.35298	784.9125
3029.76539	781.2125
3032.17632	785.5125
3034.5858	790.9125
3036.9938	783.1125
3039.40034	787.7125
3041.80542	796.3125
3044.20903	791.1125
3046.61118	794.5125
3049.01187	792.6125
3051.4111	797.1125
3053.80888	790.4125
3056.20519	795.4125
3058.60005	798.4125
3060.99345	800.2125
3063.3854	810.8125
3065.7759	808.4125
3068.16494	809.3125
3070.55254	811.0125
3072.93868	818.7125
3075.32338	814.7125
3077.70662	814.2125
3080.08842	810.8125
3082.46878	808.9125
3084.84769	812.3125
3087.22515	810.7125
3089.60118	809.3125
3091.97576	808.6125
3094.3489	813.0125
3096.72061	812.1125
3099.09087	815.7125
3101.4597	819.4125
3103.82709	820.8125
3106.19305	824.4125
3108.55757	826.8125
3110.92066	828.4125
3113.28232	831.8125
3115.64255	835.5125
3118.00134	837.5125
3120.35871	844.9125
3122.71466	847.8125
3125.06917	853.4125
3127.42226	853.9125
3129.77393	867.9125
3132.12417	868.7125
3134.47299	871.0125
3136.82039	883.0125
3139.16636	890.5125
3141.51092	892.8125
3143.85406	898.6125
3146.19579	908.4125
3148.53609	905.2125
3150.87499	920.4125
3153.21246	927.6125
3155.54853	927.8125
3157.88318	934.0125
3160.21642	948.7125
3162.54826	951.0125
3164.87868	959.3125
3167.2077	967.3125
3169.5353	970.2125
3171.86151	978.6125
3174.18631	979.6125
3176.5097	981.9125
3178.83169	989.5125
3181.15228	994.1125
3183.47147	1006.5125
3185.78926	1004.8125
3188.10565	1013.5125
3190.42065	1019.5125
3192.73424	1023.4125
3195.04645	1037.2125
3197.35725	1040.0125
3199.66667	1037.6125
3201.97469	1041.5125
3204.28132	1051.1125
3206.58656	1054.7125
3208.8904	1053.2125
3211.19287	1062.2125
3213.49394	1056.5125
3215.79363	1070.0125
3218.09193	1075.4125
3220.38884	1074.5125
3222.68438	1074.5125
3224.97853	1071.2125
3227.2713	1085.8125
3229.56269	1079.8125
3231.8527	1086.4125
3234.14133	1085.2125
3236.42858	1083.9125
3238.71446	1092.8125
3240.99896	1085.2125
3243.28209	1091.8125
3245.56384	1091.7125
3247.84423	1094.2125
3250.12324	1102.0125
3252.40088	1100.5125
3254.67715	1101.5125
3256.95205	1106.7125
3259.22558	1099.8125
3261.49775	1105.2125
3263.76855	1106.6125
3266.03799	1109.9125
3268.30606	1104.7125
3270.57277	1111.0125
3272.83812	1115.9125
3275.10211	1117.3125
3277.36474	1114.9125
3279.62601	1119.8125
3281.88593	1115.3125
3284.14448	1110.1125
3286.40168	1118.8125
3288.65753	1113.5125
3290.91202	1116.9125
3293.16516	1110.7125
3295.41695	1099.1125
3297.66738	1096.4125
3299.91647	1090.0125
3302.16421	1077.7125
3304.4106	1076.6125
3306.65564	1071.3125
3308.89933	1069.0125
3311.14169	1066.9125
3313.38269	1052.7125
3315.62236	1053.4125
3317.86068	1036.1125
3320.09766	1034.8125
3322.3333	1023.1125
3324.5676	1027.6125
3326.80056	1005.5125
3329.03219	1004.7125
3331.26248	0.5125
3333.49143	1.3125
3335.71905	-1.7875
