Data from AgNPs_FTO_APTES_UA_0uM_R6G_10uM_NaF_0.1M_Addition_RamanShift__29__10-30-07-112.txt Node

Date: Fri Dec 17 10:30:07 GMT 2021
User: TCL
Spectrometer: QEP01345
Trigger mode: 4
Integration Time (sec): 7.000000E0
Scans to average: 10
Electric dark correction enabled: true
Nonlinearity correction enabled: false
Boxcar width: 0
XAxis mode: Raman Shifts
Number of Pixels in Spectrum: 1044
>>>>>Begin Spectral Data<<<<<
46.04893	-0.9375
50.45542	-0.4375
54.85868	-1.4375
59.25871	-0.3375
63.6555	76.6625
68.04907	78.4625
72.43941	86.5625
76.82654	87.2625
81.21044	87.0625
85.59113	94.9625
89.96862	95.6625
94.34289	101.3625
98.71396	101.3625
103.08183	106.5625
107.4465	109.3625
111.80798	105.8625
116.16626	114.5625
120.52136	115.5625
124.87327	125.4625
129.222	131.7625
133.56755	136.8625
137.90993	148.4625
142.24913	162.8625
146.58517	180.0625
150.91804	212.1625
155.24774	250.9625
159.57429	311.0625
163.89768	400.7625
168.21792	525.6625
172.53501	711.0625
176.84895	984.7625
181.15975	1381.1625
185.46741	1940.2625
189.77193	2675.9625
194.07331	3561.6625
198.37157	4579.5625
202.6667	5632.3625
206.9587	6669.1625
211.24758	7740.4625
215.53334	8776.3625
219.81599	9921.9625
224.09553	11142.9625
228.37195	12541.0625
232.64527	14038.4625
236.91549	15600.6625
241.18261	17147.5625
245.44663	18547.9625
249.70755	19779.9625
253.96539	20845.1625
258.22014	21704.9625
262.4718	22416.6625
266.72039	22890.7625
270.96589	23052.1625
275.20832	22981.6625
279.44768	22768.3625
283.68397	22472.8625
287.91719	22237.8625
292.14735	22082.3625
296.37445	22056.7625
300.59849	22150.4625
304.81948	22326.7625
309.03742	22526.3625
313.25231	22572.8625
317.46415	22466.3625
321.67296	22249.9625
325.87872	22002.6625
330.08145	21926.0625
334.28114	21903.5625
338.47781	22001.0625
342.67145	22301.6625
346.86207	22709.1625
351.04966	23155.0625
355.23424	23611.3625
359.4158	23950.2625
363.59435	24229.7625
367.76989	24401.5625
371.94243	24516.1625
376.11196	24566.6625
380.27849	24673.3625
384.44203	24861.8625
388.60257	25068.0625
392.76012	25245.2625
396.91468	25545.9625
401.06626	25822.7625
405.21485	26141.4625
409.36047	26149.6625
413.50311	26183.0625
417.64277	26410.6625
421.77947	26674.3625
425.9132	26695.0625
430.04396	26733.3625
434.17176	26852.1625
438.2966	27076.3625
442.41849	27633.2625
446.53742	28675.3625
450.6534	29714.0625
454.76644	30312.3625
458.87653	30228.8625
462.98368	29636.3625
467.08789	28864.8625
471.18916	28019.8625
475.2875	27122.7625
479.38291	26394.9625
483.4754	26041.0625
487.56496	25800.9625
491.6516	25758.2625
495.73531	25718.8625
499.81612	25869.3625
503.89401	26206.5625
507.96899	26301.9625
512.04106	26158.6625
516.11023	25942.6625
520.1765	25803.8625
524.23987	25714.8625
528.30034	25698.4625
532.35792	25582.5625
536.41261	25246.3625
540.46441	24861.5625
544.51333	24730.7625
548.55936	24854.6625
552.60252	25331.6625
556.64279	26038.3625
560.6802	26604.9625
564.71473	26734.1625
568.7464	26876.1625
572.7752	27378.6625
576.80114	28221.9625
580.82422	29407.5625
584.84444	31343.1625
588.86181	33825.2625
592.87633	36053.4625
596.888	36129.3625
600.89682	33695.8625
604.9028	32149.8625
608.90594	33389.6625
612.90624	35224.9625
616.90371	33290.1625
620.89834	28734.3625
624.89015	26546.9625
628.87913	26219.6625
632.86528	26074.1625
636.84862	25720.4625
640.82913	25157.5625
644.80683	24540.3625
648.78172	24398.9625
652.75379	24474.9625
656.72306	24829.2625
660.68952	25194.5625
664.65319	25038.1625
668.61405	24625.8625
672.57211	24634.1625
676.52738	24824.8625
680.47986	24785.9625
684.42955	24523.8625
688.37646	24406.7625
692.32058	24642.4625
696.26192	25201.1625
700.20048	25696.6625
704.13626	25896.4625
708.06928	25779.5625
711.99952	25559.7625
715.927	25695.4625
719.85171	25900.6625
723.77365	25775.1625
727.69284	25380.8625
731.60928	24945.2625
735.52295	24824.1625
739.43388	24857.1625
743.34206	24998.7625
747.24749	25163.6625
751.15017	25444.4625
755.05012	25832.0625
758.94733	26501.7625
762.8418	27570.4625
766.73354	29191.7625
770.62254	30666.8625
774.50882	30832.8625
778.39237	29635.3625
782.27321	28035.5625
786.15132	26695.9625
790.02671	25822.9625
793.89938	25474.4625
797.76935	25367.4625
801.6366	25317.9625
805.50115	25265.7625
809.36299	25168.6625
813.22213	24903.3625
817.07857	24742.1625
820.93231	24520.6625
824.78336	24417.4625
828.63172	24357.8625
832.47738	24319.1625
836.32036	24426.7625
840.16066	24529.0625
843.99827	24618.0625
847.8332	24609.4625
851.66546	24531.6625
855.49504	24512.9625
859.32195	24537.0625
863.1462	24466.2625
866.96777	24364.7625
870.78668	24300.0625
874.60293	24362.3625
878.41652	24441.7625
882.22745	24585.1625
886.03573	24720.4625
889.84136	24681.4625
893.64433	24561.3625
897.44466	24385.8625
901.24235	24273.9625
905.0374	24258.4625
908.8298	24210.8625
912.61957	24247.6625
916.40671	24470.8625
920.19121	24761.1625
923.97308	25223.2625
927.75233	25369.5625
931.52895	25254.4625
935.30295	24880.2625
939.07433	24378.1625
942.84309	24158.3625
946.60924	24090.5625
950.37278	24097.7625
954.13371	24014.3625
957.89203	23908.4625
961.64774	23841.7625
965.40086	23859.6625
969.15137	23805.0625
972.89929	23722.3625
976.64461	23731.1625
980.38733	23810.7625
984.12747	23909.0625
987.86502	24091.7625
991.59999	24340.1625
995.33237	24766.3625
999.06217	25520.8625
1002.78939	26372.3625
1006.51404	27095.5625
1010.23611	27593.0625
1013.95561	27954.5625
1017.67255	27997.5625
1021.38692	27668.2625
1025.09872	27178.7625
1028.80796	27138.7625
1032.51465	27782.8625
1036.21877	28495.3625
1039.92035	28645.9625
1043.61937	28282.9625
1047.31584	27629.9625
1051.00976	26861.3625
1054.70114	26442.7625
1058.38998	26255.3625
1062.07627	26205.8625
1065.76003	26315.3625
1069.44126	26548.4625
1073.11995	26963.1625
1076.79611	27409.4625
1080.46974	27698.6625
1084.14085	27965.7625
1087.80943	28281.7625
1091.47549	28425.3625
1095.13903	28223.8625
1098.80005	27725.2625
1102.45857	27104.4625
1106.11456	26778.1625
1109.76805	26647.5625
1113.41903	26740.5625
1117.06751	26845.4625
1120.71348	27005.6625
1124.35696	27174.6625
1127.99793	27375.2625
1131.63641	27502.9625
1135.2724	27390.8625
1138.90589	27380.6625
1142.5369	27465.9625
1146.16542	27623.4625
1149.79145	27730.1625
1153.415	27919.1625
1157.03607	28244.0625
1160.65467	29086.4625
1164.27079	30591.3625
1167.88443	32334.2625
1171.49561	34158.8625
1175.10432	36405.5625
1178.71056	39499.6625
1182.31434	42431.1625
1185.91565	43652.0625
1189.51451	42806.1625
1193.11091	41030.4625
1196.70485	39154.9625
1200.29634	37705.5625
1203.88538	36709.5625
1207.47197	36198.1625
1211.05612	35759.6625
1214.63782	35091.1625
1218.21708	34425.9625
1221.79391	33982.9625
1225.36829	33850.8625
1228.94024	33518.2625
1232.50976	32813.5625
1236.07685	31915.9625
1239.6415	31219.1625
1243.20374	31100.3625
1246.76355	31327.3625
1250.32093	31920.4625
1253.8759	32730.1625
1257.42845	33665.8625
1260.97859	34760.0625
1264.52631	35932.2625
1268.07163	37159.0625
1271.61453	38390.0625
1275.15503	39637.4625
1278.69312	40844.6625
1282.22882	42094.3625
1285.76211	43527.3625
1289.29301	45172.1625
1292.82151	47102.9625
1296.34761	49674.7625
1299.87133	53034.9625
1303.39266	56924.0625
1306.9116	60745.5625
1310.42815	63766.1625
1313.94233	65186.7625
1317.45412	64220.2625
1320.96354	61596.6625
1324.47058	59040.2625
1327.97525	57291.4625
1331.47754	56046.7625
1334.97747	55084.8625
1338.47502	53911.3625
1341.97022	52392.9625
1345.46305	50828.8625
1348.95352	50119.4625
1352.44163	51157.2625
1355.92738	54181.4625
1359.41078	58424.0625
1362.89183	61492.3625
1366.37053	61154.5625
1369.84688	56355.3625
1373.32088	49217.4625
1376.79254	44207.1625
1380.26186	42429.1625
1383.72883	42450.0625
1387.19347	42428.1625
1390.65578	41635.4625
1394.11575	41315.8625
1397.57339	41877.1625
1401.0287	42843.7625
1404.48168	43792.1625
1407.93234	44144.2625
1411.38068	43719.6625
1414.82669	42777.5625
1418.27039	41295.0625
1421.71177	39652.7625
1425.15083	38308.0625
1428.58758	37853.2625
1432.02203	38475.8625
1435.45416	39897.9625
1438.88399	41319.6625
1442.31151	42054.5625
1445.73673	42224.0625
1449.15965	41980.5625
1452.58027	41362.0625
1455.9986	40622.5625
1459.41463	40332.9625
1462.82837	40949.2625
1466.23982	42051.9625
1469.64898	43228.6625
1473.05586	44030.6625
1476.46045	44458.3625
1479.86276	44460.5625
1483.26279	44043.0625
1486.66054	43836.4625
1490.05602	44054.6625
1493.44922	44260.2625
1496.84016	44071.4625
1500.22882	43829.5625
1503.61521	44063.8625
1506.99934	44552.4625
1510.38121	45026.8625
1513.76081	45032.0625
1517.13816	44211.0625
1520.51324	42878.7625
1523.88607	42195.9625
1527.25665	42228.2625
1530.62498	42736.9625
1533.99105	42925.8625
1537.35488	42597.4625
1540.71647	41883.9625
1544.07581	40788.6625
1547.4329	39642.3625
1550.78776	38610.6625
1554.14038	37676.0625
1557.49077	37057.0625
1560.83892	36562.7625
1564.18484	36386.4625
1567.52853	36505.0625
1570.86999	36782.7625
1574.20922	37360.6625
1577.54624	37898.9625
1580.88103	38180.3625
1584.2136	38862.9625
1587.54395	40685.8625
1590.87208	44005.9625
1594.19801	48071.0625
1597.52172	51891.1625
1600.84321	53247.8625
1604.16251	50675.7625
1607.47959	45611.8625
1610.79447	40210.0625
1614.10715	35803.3625
1617.41763	32783.2625
1620.7259	31130.0625
1624.03199	30471.0625
1627.33587	30738.4625
1630.63757	31839.5625
1633.93707	34067.4625
1637.23439	37818.5625
1640.52951	43620.4625
1643.82246	50678.2625
1647.11321	55990.2625
1650.40179	55924.0625
1653.68819	49991.6625
1656.97241	41838.6625
1660.25446	34999.9625
1663.53433	30564.7625
1666.81203	28041.3625
1670.08756	26551.7625
1673.36092	25597.4625
1676.63211	24982.8625
1679.90115	24558.0625
1683.16801	24232.3625
1686.43272	23992.4625
1689.69527	23818.6625
1692.95567	23696.8625
1696.2139	23597.7625
1699.46999	23500.7625
1702.72392	23453.7625
1705.97571	23467.2625
1709.22535	23440.2625
1712.47284	23415.6625
1715.71819	23384.5625
1718.96139	23358.4625
1722.20246	23277.5625
1725.44139	23176.3625
1728.67818	23052.2625
1731.91284	22920.4625
1735.14537	22805.7625
1738.37576	22746.4625
1741.60403	22642.2625
1744.83017	22609.9625
1748.05418	22548.1625
1751.27607	22494.5625
1754.49584	22470.0625
1757.71349	22472.8625
1760.92903	22419.9625
1764.14244	22427.0625
1767.35375	22399.3625
1770.56294	22379.2625
1773.77002	22332.4625
1776.97499	22293.8625
1780.17785	22273.6625
1783.37861	22271.3625
1786.57727	22234.2625
1789.77382	22216.3625
1792.96828	22199.2625
1796.16064	22136.3625
1799.3509	22100.0625
1802.53907	22081.2625
1805.72514	22046.8625
1808.90913	21986.4625
1812.09102	21955.3625
1815.27083	21863.2625
1818.44856	21878.8625
1821.6242	21813.2625
1824.79776	21822.6625
1827.96924	21805.9625
1831.13864	21813.0625
1834.30597	21832.2625
1837.47122	21817.1625
1840.6344	21803.1625
1843.7955	21854.2625
1846.95454	21825.0625
1850.11151	21813.7625
1853.26642	21786.7625
1856.41926	21826.9625
1859.57004	21790.9625
1862.71876	21772.6625
1865.86542	21769.2625
1869.01003	21756.2625
1872.15258	21770.0625
1875.29308	21754.0625
1878.43152	21742.8625
1881.56792	21748.1625
1884.70227	21730.0625
1887.83457	21717.7625
1890.96482	21668.3625
1894.09304	21686.7625
1897.21921	21642.6625
1900.34335	21659.5625
1903.46544	21608.5625
1906.58551	21617.6625
1909.70353	21623.8625
1912.81953	21590.7625
1915.93349	21494.9625
1919.04543	21468.1625
1922.15534	21398.9625
1925.26322	21365.3625
1928.36908	21336.6625
1931.47292	21308.3625
1934.57473	21233.9625
1937.67453	21171.6625
1940.77232	21145.3625
1943.86808	21089.4625
1946.96184	21086.0625
1950.05358	21018.8625
1953.14331	20963.7625
1956.23103	20925.4625
1959.31675	20885.2625
1962.40046	20811.9625
1965.48217	20751.2625
1968.56188	20732.4625
1971.63959	20641.5625
1974.7153	20583.5625
1977.78901	20525.2625
1980.86073	20414.4625
1983.93046	20406.7625
1986.99819	20305.0625
1990.06394	20311.2625
1993.1277	20244.8625
1996.18947	20169.5625
1999.24925	20174.6625
2002.30706	20064.3625
2005.36288	20011.6625
2008.41672	20019.3625
2011.46859	19928.7625
2014.51848	19864.1625
2017.56639	19864.7625
2020.61233	19830.6625
2023.6563	19819.6625
2026.6983	19749.2625
2029.73833	19726.0625
2032.7764	19707.2625
2035.8125	19731.9625
2038.84664	19665.9625
2041.87881	19679.7625
2044.90903	19631.0625
2047.93729	19616.3625
2050.96359	19618.4625
2053.98794	19535.1625
2057.01034	19526.8625
2060.03078	19517.0625
2063.04927	19478.8625
2066.06582	19488.5625
2069.08042	19466.5625
2072.09307	19461.3625
2075.10378	19438.9625
2078.11255	19390.2625
2081.11938	19457.4625
2084.12426	19421.3625
2087.12722	19410.7625
2090.12824	19354.4625
2093.12732	19441.9625
2096.12447	19432.1625
2099.11969	19460.5625
2102.11299	19467.9625
2105.10435	19466.1625
2108.09379	19479.2625
2111.08131	19503.4625
2114.0669	19516.9625
2117.05057	19498.6625
2120.03233	19501.7625
2123.01216	19531.3625
2125.99008	19522.8625
2128.96609	19566.6625
2131.94018	19588.7625
2134.91236	19585.7625
2137.88263	19557.3625
2140.851	19627.9625
2143.81746	19635.3625
2146.78201	19620.5625
2149.74466	19622.0625
2152.7054	19657.5625
2155.66425	19628.3625
2158.6212	19682.8625
2161.57625	19648.7625
2164.52941	19627.8625
2167.48067	19685.6625
2170.43004	19667.1625
2173.37752	19650.0625
2176.32311	19660.6625
2179.26681	19672.7625
2182.20863	19659.4625
2185.14856	19702.5625
2188.08661	19685.7625
2191.02278	19669.4625
2193.95707	19691.0625
2196.88948	19687.1625
2199.82001	19675.6625
2202.74867	19673.9625
2205.67545	19687.5625
2208.60037	19648.6625
2211.52341	19627.1625
2214.44458	19578.0625
2217.36388	19540.9625
2220.28132	19543.9625
2223.1969	19534.5625
2226.11061	19502.9625
2229.02246	19480.3625
2231.93245	19472.9625
2234.84058	19397.8625
2237.74686	19417.8625
2240.65128	19432.7625
2243.55385	19412.2625
2246.45456	19341.6625
2249.35343	19310.0625
2252.25044	19278.6625
2255.14561	19216.1625
2258.03893	19198.6625
2260.93041	19154.8625
2263.82004	19071.6625
2266.70783	19072.2625
2269.59378	19023.9625
2272.4779	18974.7625
2275.36017	18984.5625
2278.24061	18946.2625
2281.11922	18924.5625
2283.996	18905.6625
2286.87094	18898.7625
2289.74405	18880.1625
2292.61534	18866.5625
2295.4848	18866.6625
2298.35243	18849.0625
2301.21824	18870.5625
2304.08223	18890.0625
2306.94439	18902.0625
2309.80474	18914.9625
2312.66327	18922.9625
2315.51999	18875.9625
2318.37489	18921.8625
2321.22797	18910.1625
2324.07925	18874.0625
2326.92871	18859.6625
2329.77637	18858.3625
2332.62222	18857.0625
2335.46626	18832.3625
2338.3085	18809.9625
2341.14893	18822.9625
2343.98756	18819.0625
2346.8244	18831.5625
2349.65943	18822.1625
2352.49267	18801.6625
2355.32411	18744.5625
2358.15376	18771.7625
2360.98161	18731.9625
2363.80768	18719.5625
2366.63195	18705.2625
2369.45444	18621.1625
2372.27514	18613.5625
2375.09405	18609.3625
2377.91118	18592.3625
2380.72652	18559.1625
2383.54009	18558.6625
2386.35187	18522.3625
2389.16188	18502.2625
2391.97011	18461.1625
2394.77657	18424.0625
2397.58125	18410.3625
2400.38416	18392.8625
2403.18529	18366.2625
2405.98466	18365.4625
2408.78226	18303.7625
2411.57809	18298.2625
2414.37216	18277.4625
2417.16446	18254.2625
2419.955	18213.1625
2422.74378	18232.1625
2425.5308	18207.3625
2428.31606	18183.2625
2431.09956	18179.6625
2433.88131	18179.2625
2436.6613	18157.6625
2439.43954	18142.3625
2442.21603	18140.3625
2444.99077	18135.8625
2447.76377	18141.4625
2450.53501	18103.3625
2453.30451	18131.8625
2456.07226	18141.4625
2458.83827	18154.4625
2461.60254	18096.0625
2464.36507	18108.2625
2467.12586	18129.3625
2469.88492	18112.8625
2472.64224	18114.5625
2475.39782	18114.5625
2478.15167	18099.2625
2480.90379	18103.0625
2483.65417	18148.2625
2486.40283	18117.1625
2489.14976	18111.8625
2491.89497	18100.6625
2494.63845	18125.8625
2497.3802	18112.8625
2500.12024	18151.9625
2502.85855	18139.4625
2505.59514	18119.1625
2508.33002	18123.0625
2511.06318	18104.7625
2513.79462	18080.7625
2516.52435	18036.3625
2519.25237	18055.5625
2521.97867	18056.3625
2524.70327	18027.7625
2527.42616	18029.0625
2530.14734	18008.6625
2532.86681	17983.4625
2535.58458	17991.0625
2538.30065	17987.1625
2541.01501	17990.1625
2543.72768	17930.0625
2546.43864	17938.1625
2549.14791	17933.5625
2551.85548	17932.1625
2554.56136	17898.3625
2557.26554	17917.5625
2559.96803	17903.9625
2562.66883	17878.7625
2565.36794	17903.6625
2568.06536	17911.8625
2570.7611	17896.0625
2573.45514	17891.2625
2576.14751	17861.7625
2578.83819	17879.6625
2581.52719	17864.4625
2584.21451	17866.8625
2586.90015	17840.1625
2589.58411	17825.0625
2592.2664	17826.3625
2594.94701	17811.1625
2597.62594	17813.2625
2600.30321	17786.7625
2602.9788	17765.8625
2605.65273	17771.2625
2608.32498	17740.9625
2610.99557	17737.3625
2613.66449	17737.9625
2616.33175	17737.6625
2618.99734	17760.7625
2621.66128	17737.3625
2624.32355	17719.0625
2626.98416	17720.6625
2629.64311	17688.8625
2632.30041	17684.0625
2634.95605	17669.9625
2637.61004	17666.6625
2640.26238	17648.7625
2642.91306	17635.6625
2645.56209	17631.3625
2648.20948	17583.2625
2650.85521	17592.9625
2653.4993	17602.2625
2656.14175	17619.5625
2658.78255	17640.4625
2661.42171	17616.0625
2664.05923	17652.7625
2666.6951	17645.9625
2669.32934	17681.8625
2671.96194	17658.3625
2674.59291	17689.4625
2677.22224	17672.0625
2679.84993	17678.3625
2682.476	17647.2625
2685.10043	17637.8625
2687.72324	17631.4625
2690.34441	17619.4625
2692.96396	17598.2625
2695.58188	17599.3625
2698.19818	17561.8625
2700.81285	17601.7625
2703.4259	17613.3625
2706.03733	17615.6625
2708.64714	17649.4625
2711.25533	17651.2625
2713.86191	17637.2625
2716.46687	17677.4625
2719.07021	17702.3625
2721.67194	17657.4625
2724.27206	17678.6625
2726.87057	17706.0625
2729.46747	17686.9625
2732.06276	17701.9625
2734.65644	17699.6625
2737.24852	17699.2625
2739.83899	17678.4625
2742.42786	17691.1625
2745.01513	17645.5625
2747.60079	17690.9625
2750.18486	17700.1625
2752.76733	17713.8625
2755.3482	17663.1625
2757.92747	17671.3625
2760.50515	17680.8625
2763.08123	17672.5625
2765.65573	17644.8625
2768.22863	17705.7625
2770.79994	17720.9625
2773.36967	17679.5625
2775.9378	17680.6625
2778.50435	17636.9625
2781.06932	17669.7625
2783.6327	17649.1625
2786.1945	17617.9625
2788.75471	17607.6625
2791.31335	17550.4625
2793.87041	17548.8625
2796.42589	17509.4625
2798.97979	17514.5625
2801.53212	17474.9625
2804.08288	17444.5625
2806.63206	17394.1625
2809.17967	17418.8625
2811.72571	17365.9625
2814.27018	17365.4625
2816.81308	17364.1625
2819.35442	17316.5625
2821.89419	17286.1625
2824.43239	17303.3625
2826.96904	17228.7625
2829.50412	17228.5625
2832.03763	17224.4625
2834.56959	17222.4625
2837.1	17208.8625
2839.62884	17189.3625
2842.15613	17190.3625
2844.68186	17222.7625
2847.20604	17201.8625
2849.72867	17180.2625
2852.24974	17169.5625
2854.76927	17171.2625
2857.28724	17184.5625
2859.80367	17161.1625
2862.31855	17136.3625
2864.83189	17138.8625
2867.34368	17121.7625
2869.85393	17156.7625
2872.36264	17123.7625
2874.8698	17170.9625
2877.37543	17149.6625
2879.87952	17184.2625
2882.38207	17156.3625
2884.88308	17168.8625
2887.38256	17167.3625
2889.88051	17195.0625
2892.37692	17213.4625
2894.8718	17199.8625
2897.36515	17245.9625
2899.85698	17251.4625
2902.34727	17274.6625
2904.83604	17251.9625
2907.32328	17312.6625
2909.809	17283.7625
2912.29319	17294.1625
2914.77587	17288.9625
2917.25702	17302.4625
2919.73665	17276.0625
2922.21476	17284.0625
2924.69136	17257.9625
2927.16644	17260.7625
2929.64	17217.9625
2932.11205	17200.4625
2934.58258	17160.0625
2937.05161	17200.2625
2939.51912	17207.8625
2941.98513	17174.9625
2944.44962	17130.9625
2946.91261	17079.9625
2949.37409	17117.8625
2951.83407	17092.3625
2954.29254	17062.6625
2956.74951	17068.4625
2959.20498	17028.9625
2961.65895	17033.5625
2964.11142	17041.2625
2966.56239	16970.0625
2969.01186	16951.4625
2971.45984	16895.8625
2973.90632	16903.1625
2976.35131	16846.3625
2978.7948	16807.9625
2981.23681	16762.3625
2983.67732	16718.1625
2986.11635	16680.8625
2988.55388	16645.5625
2990.98993	16603.4625
2993.4245	16543.1625
2995.85758	16557.1625
2998.28917	16528.2625
3000.71928	16509.0625
3003.14791	16498.1625
3005.57506	16467.8625
3008.00073	16451.6625
3010.42493	16418.4625
3012.84764	16389.7625
3015.26888	16391.1625
3017.68865	16328.0625
3020.10694	16307.2625
3022.52376	16267.7625
3024.9391	16244.5625
3027.35298	16194.9625
3029.76539	16192.9625
3032.17632	16179.7625
3034.5858	16173.2625
3036.9938	16172.9625
3039.40034	16153.1625
3041.80542	16177.0625
3044.20903	16132.4625
3046.61118	16102.9625
3049.01187	16077.9625
3051.4111	16064.6625
3053.80888	16023.6625
3056.20519	16008.4625
3058.60005	15974.4625
3060.99345	15945.0625
3063.3854	15907.0625
3065.7759	15855.7625
3068.16494	15826.4625
3070.55254	15783.8625
3072.93868	15808.1625
3075.32338	15770.5625
3077.70662	15749.2625
3080.08842	15702.4625
3082.46878	15701.1625
3084.84769	15630.8625
3087.22515	15633.9625
3089.60118	15650.9625
3091.97576	15643.6625
3094.3489	15614.7625
3096.72061	15602.4625
3099.09087	15615.7625
3101.4597	15536.5625
3103.82709	15561.0625
3106.19305	15524.9625
3108.55757	15529.9625
3110.92066	15503.6625
3113.28232	15490.5625
3115.64255	15438.4625
3118.00134	15408.7625
3120.35871	15407.0625
3122.71466	15412.8625
3125.06917	15365.6625
3127.42226	15320.5625
3129.77393	15349.0625
3132.12417	15336.0625
3134.47299	15343.1625
3136.82039	15335.1625
3139.16636	15330.7625
3141.51092	15311.8625
3143.85406	15338.8625
3146.19579	15328.2625
3148.53609	15325.0625
3150.87499	15322.4625
3153.21246	15309.2625
3155.54853	15320.8625
3157.88318	15307.3625
3160.21642	15280.6625
3162.54826	15280.1625
3164.87868	15257.1625
3167.2077	15224.1625
3169.5353	15236.6625
3171.86151	15248.5625
3174.18631	15236.4625
3176.5097	15231.1625
3178.83169	15203.2625
3181.15228	15183.3625
3183.47147	15159.9625
3185.78926	15177.6625
3188.10565	15196.5625
3190.42065	15177.6625
3192.73424	15184.9625
3195.04645	15193.0625
3197.35725	15208.9625
3199.66667	15175.2625
3201.97469	15211.8625
3204.28132	15162.4625
3206.58656	15175.2625
3208.8904	15118.1625
3211.19287	15145.4625
3213.49394	15112.3625
3215.79363	15111.2625
3218.09193	15123.4625
3220.38884	15121.2625
3222.68438	15104.0625
3224.97853	15087.7625
3227.2713	15090.3625
3229.56269	15078.4625
3231.8527	15099.0625
3234.14133	15050.8625
3236.42858	15033.3625
3238.71446	15024.6625
3240.99896	15010.6625
3243.28209	14989.8625
3245.56384	14994.2625
3247.84423	15008.7625
3250.12324	14966.3625
3252.40088	14961.0625
3254.67715	14936.9625
3256.95205	14910.9625
3259.22558	14902.3625
3261.49775	14865.3625
3263.76855	14850.5625
3266.03799	14831.5625
3268.30606	14826.9625
3270.57277	14784.0625
3272.83812	14748.5625
3275.10211	14757.0625
3277.36474	14772.9625
3279.62601	14777.5625
3281.88593	14734.6625
3284.14448	14758.2625
3286.40168	14740.2625
3288.65753	14711.7625
3290.91202	14667.1625
3293.16516	14648.9625
3295.41695	14606.5625
3297.66738	14540.2625
3299.91647	14433.9625
3302.16421	14380.4625
3304.4106	14317.2625
3306.65564	14261.2625
3308.89933	14171.0625
3311.14169	14088.0625
3313.38269	13960.9625
3315.62236	13910.5625
3317.86068	13780.7625
3320.09766	13640.3625
3322.3333	13506.7625
3324.5676	13490.9625
3326.80056	13300.3625
3329.03219	13223.2625
3331.26248	3.3625
3333.49143	0.4625
3335.71905	-0.2375
