Data from AgNPs_FTO_APTES_UA_0uM_R6G_10uM_NaF_0.1M_Addition_RamanShift__12__10-09-07-088.txt Node

Date: Fri Dec 17 10:09:07 GMT 2021
User: TCL
Spectrometer: QEP01345
Trigger mode: 4
Integration Time (sec): 7.000000E0
Scans to average: 10
Electric dark correction enabled: true
Nonlinearity correction enabled: false
Boxcar width: 0
XAxis mode: Raman Shifts
Number of Pixels in Spectrum: 1044
>>>>>Begin Spectral Data<<<<<
46.04893	-0.325
50.45542	1.575
54.85868	-0.825
59.25871	-0.025
63.6555	33.075
68.04907	30.875
72.43941	34.675
76.82654	39.775
81.21044	40.275
85.59113	41.975
89.96862	41.675
94.34289	45.075
98.71396	46.875
103.08183	46.475
107.4465	48.775
111.80798	46.875
116.16626	49.275
120.52136	47.775
124.87327	48.975
129.222	55.175
133.56755	53.575
137.90993	58.075
142.24913	60.575
146.58517	62.675
150.91804	71.875
155.24774	82.475
159.57429	104.575
163.89768	126.075
168.21792	162.775
172.53501	206.075
176.84895	281.575
181.15975	385.275
185.46741	537.275
189.77193	749.775
194.07331	991.575
198.37157	1279.775
202.6667	1587.975
206.9587	1888.175
211.24758	2179.475
215.53334	2493.475
219.81599	2807.175
224.09553	3196.475
228.37195	3599.975
232.64527	4015.975
236.91549	4473.575
241.18261	4878.275
245.44663	5225.275
249.70755	5514.575
253.96539	5748.975
258.22014	5929.775
262.4718	6122.075
266.72039	6223.175
270.96589	6251.575
275.20832	6191.875
279.44768	6087.275
283.68397	5937.775
287.91719	5823.575
292.14735	5772.375
296.37445	5786.575
300.59849	5872.875
304.81948	6041.475
309.03742	6157.775
313.25231	6204.175
317.46415	6129.675
321.67296	5964.275
325.87872	5804.575
330.08145	5726.775
334.28114	5691.275
338.47781	5728.375
342.67145	5794.675
346.86207	5892.475
351.04966	6041.675
355.23424	6188.175
359.4158	6334.775
363.59435	6398.675
367.76989	6441.575
371.94243	6443.875
376.11196	6431.075
380.27849	6438.275
384.44203	6415.675
388.60257	6403.575
392.76012	6403.275
396.91468	6413.475
401.06626	6493.275
405.21485	6550.675
409.36047	6483.575
413.50311	6314.475
417.64277	6163.075
421.77947	6037.975
425.9132	6035.375
430.04396	6088.575
434.17176	6152.875
438.2966	6268.175
442.41849	6448.675
446.53742	6725.775
450.6534	6958.375
454.76644	7083.375
458.87653	7015.475
462.98368	6818.975
467.08789	6592.175
471.18916	6405.175
475.2875	6221.175
479.38291	6078.775
483.4754	5990.275
487.56496	5939.075
491.6516	5928.475
495.73531	5930.175
499.81612	5958.075
503.89401	6041.075
507.96899	6083.475
512.04106	6118.375
516.11023	6172.475
520.1765	6222.375
524.23987	6259.075
528.30034	6250.575
532.35792	6219.375
536.41261	6120.175
540.46441	5986.075
544.51333	5900.875
548.55936	5893.875
552.60252	6010.875
556.64279	6191.675
560.6802	6310.475
564.71473	6325.475
568.7464	6314.975
572.7752	6377.175
576.80114	6294.975
580.82422	6244.875
584.84444	6380.475
588.86181	6744.575
592.87633	7333.275
596.888	7730.375
600.89682	7503.875
604.9028	7430.175
608.90594	8270.275
612.90624	9608.875
616.90371	9406.875
620.89834	7375.375
624.89015	6263.975
628.87913	6016.975
632.86528	5979.275
636.84862	5958.175
640.82913	5888.575
644.80683	5745.075
648.78172	5628.975
652.75379	5659.075
656.72306	5775.475
660.68952	5946.375
664.65319	5900.875
668.61405	5706.575
672.57211	5616.175
676.52738	5635.875
680.47986	5629.675
684.42955	5596.875
688.37646	5546.675
692.32058	5542.475
696.26192	5613.575
700.20048	5672.475
704.13626	5726.875
708.06928	5707.375
711.99952	5667.575
715.927	5679.075
719.85171	5708.475
723.77365	5742.675
727.69284	5677.875
731.60928	5650.775
735.52295	5654.075
739.43388	5676.375
743.34206	5706.875
747.24749	5717.975
751.15017	5749.175
755.05012	5797.975
758.94733	5939.675
762.8418	6327.875
766.73354	7045.275
770.62254	7862.675
774.50882	8255.175
778.39237	7907.375
782.27321	7127.875
786.15132	6400.475
790.02671	5955.175
793.89938	5747.775
797.76935	5644.375
801.6366	5606.175
805.50115	5586.375
809.36299	5525.975
813.22213	5488.175
817.07857	5446.775
820.93231	5439.275
824.78336	5436.375
828.63172	5444.975
832.47738	5450.675
836.32036	5443.975
840.16066	5458.375
843.99827	5483.575
847.8332	5455.075
851.66546	5460.475
855.49504	5456.575
859.32195	5439.375
863.1462	5431.075
866.96777	5404.475
870.78668	5412.775
874.60293	5403.075
878.41652	5433.575
882.22745	5460.075
886.03573	5505.775
889.84136	5517.275
893.64433	5500.275
897.44466	5494.275
901.24235	5504.975
905.0374	5516.775
908.8298	5525.175
912.61957	5550.475
916.40671	5610.875
920.19121	5686.275
923.97308	5771.775
927.75233	5865.175
931.52895	5862.575
935.30295	5781.475
939.07433	5622.675
942.84309	5481.175
946.60924	5392.475
950.37278	5319.975
954.13371	5266.475
957.89203	5218.775
961.64774	5182.675
965.40086	5145.975
969.15137	5118.375
972.89929	5116.075
976.64461	5104.875
980.38733	5098.975
984.12747	5089.675
987.86502	5123.775
991.59999	5185.775
995.33237	5244.175
999.06217	5381.075
1002.78939	5536.475
1006.51404	5620.975
1010.23611	5663.075
1013.95561	5727.775
1017.67255	5711.975
1021.38692	5665.975
1025.09872	5530.875
1028.80796	5464.075
1032.51465	5526.675
1036.21877	5606.975
1039.92035	5634.675
1043.61937	5609.075
1047.31584	5567.975
1051.00976	5542.675
1054.70114	5522.175
1058.38998	5530.275
1062.07627	5513.675
1065.76003	5485.375
1069.44126	5464.275
1073.11995	5453.675
1076.79611	5500.875
1080.46974	5571.175
1084.14085	5639.675
1087.80943	5737.075
1091.47549	5780.875
1095.13903	5706.175
1098.80005	5538.175
1102.45857	5407.175
1106.11456	5341.575
1109.76805	5351.375
1113.41903	5414.475
1117.06751	5525.375
1120.71348	5643.375
1124.35696	5768.475
1127.99793	5894.775
1131.63641	5925.275
1135.2724	5763.075
1138.90589	5569.975
1142.5369	5449.075
1146.16542	5386.575
1149.79145	5373.575
1153.415	5368.475
1157.03607	5371.375
1160.65467	5467.275
1164.27079	5648.775
1167.88443	5966.675
1171.49561	6425.275
1175.10432	7151.675
1178.71056	8119.575
1182.31434	8982.975
1185.91565	9233.975
1189.51451	8869.475
1193.11091	8232.775
1196.70485	7614.175
1200.29634	7136.675
1203.88538	6706.075
1207.47197	6335.775
1211.05612	6059.275
1214.63782	5932.175
1218.21708	5917.275
1221.79391	6023.975
1225.36829	6193.375
1228.94024	6185.975
1232.50976	6012.975
1236.07685	5802.475
1239.6415	5673.675
1243.20374	5615.675
1246.76355	5605.575
1250.32093	5655.375
1253.8759	5752.775
1257.42845	5893.775
1260.97859	6085.075
1264.52631	6265.175
1268.07163	6458.775
1271.61453	6625.375
1275.15503	6790.975
1278.69312	6924.475
1282.22882	7098.475
1285.76211	7302.575
1289.29301	7604.675
1292.82151	7936.475
1296.34761	8322.575
1299.87133	8817.075
1303.39266	9432.375
1306.9116	10316.675
1310.42815	11360.475
1313.94233	12160.575
1317.45412	12150.575
1320.96354	11397.975
1324.47058	10361.575
1327.97525	9387.675
1331.47754	8705.175
1334.97747	8327.675
1338.47502	8175.175
1341.97022	8088.375
1345.46305	8142.975
1348.95352	8494.175
1352.44163	9227.675
1355.92738	10386.875
1359.41078	11895.275
1362.89183	13346.375
1366.37053	13591.175
1369.84688	12053.375
1373.32088	9840.075
1376.79254	8303.675
1380.26186	7627.275
1383.72883	7387.775
1387.19347	7219.675
1390.65578	6967.875
1394.11575	6845.475
1397.57339	6825.175
1401.0287	6908.375
1404.48168	6995.575
1407.93234	7014.775
1411.38068	6922.675
1414.82669	6806.275
1418.27039	6691.875
1421.71177	6519.675
1425.15083	6377.975
1428.58758	6279.175
1432.02203	6322.275
1435.45416	6461.075
1438.88399	6608.775
1442.31151	6657.375
1445.73673	6695.075
1449.15965	6710.075
1452.58027	6630.875
1455.9986	6488.175
1459.41463	6361.775
1462.82837	6386.075
1466.23982	6497.775
1469.64898	6687.475
1473.05586	6842.975
1476.46045	6938.475
1479.86276	7053.475
1483.26279	7097.875
1486.66054	7160.975
1490.05602	7259.975
1493.44922	7405.575
1496.84016	7588.275
1500.22882	7951.775
1503.61521	8554.075
1506.99934	9325.175
1510.38121	10107.775
1513.76081	10493.475
1517.13816	10116.375
1520.51324	9182.275
1523.88607	8229.675
1527.25665	7585.875
1530.62498	7289.575
1533.99105	7130.875
1537.35488	6977.875
1540.71647	6822.775
1544.07581	6678.975
1547.4329	6502.475
1550.78776	6378.275
1554.14038	6282.675
1557.49077	6251.875
1560.83892	6282.275
1564.18484	6340.575
1567.52853	6503.975
1570.86999	6684.375
1574.20922	6842.875
1577.54624	6881.575
1580.88103	6682.575
1584.2136	6354.175
1587.54395	6238.375
1590.87208	6413.275
1594.19801	6879.275
1597.52172	7573.675
1600.84321	8047.575
1604.16251	7882.375
1607.47959	7241.075
1610.79447	6495.975
1614.10715	5809.175
1617.41763	5329.475
1620.7259	5090.175
1624.03199	4955.975
1627.33587	4960.275
1630.63757	5078.175
1633.93707	5328.875
1637.23439	5801.475
1640.52951	6604.275
1643.82246	7697.775
1647.11321	8836.075
1650.40179	9327.175
1653.68819	8787.475
1656.97241	7465.975
1660.25446	6145.975
1663.53433	5241.275
1666.81203	4728.975
1670.08756	4438.075
1673.36092	4245.875
1676.63211	4123.275
1679.90115	4042.775
1683.16801	3977.775
1686.43272	3922.075
1689.69527	3883.275
1692.95567	3864.475
1696.2139	3818.175
1699.46999	3797.775
1702.72392	3774.775
1705.97571	3780.575
1709.22535	3773.375
1712.47284	3771.675
1715.71819	3777.875
1718.96139	3755.975
1722.20246	3747.875
1725.44139	3717.775
1728.67818	3694.775
1731.91284	3677.875
1735.14537	3659.075
1738.37576	3630.575
1741.60403	3598.975
1744.83017	3597.875
1748.05418	3581.775
1751.27607	3567.075
1754.49584	3548.975
1757.71349	3551.075
1760.92903	3538.175
1764.14244	3516.475
1767.35375	3501.975
1770.56294	3508.775
1773.77002	3493.675
1776.97499	3482.075
1780.17785	3463.875
1783.37861	3465.775
1786.57727	3479.675
1789.77382	3457.975
1792.96828	3456.275
1796.16064	3441.775
1799.3509	3441.575
1802.53907	3424.775
1805.72514	3416.175
1808.90913	3397.675
1812.09102	3392.375
1815.27083	3363.875
1818.44856	3367.575
1821.6242	3355.375
1824.79776	3355.875
1827.96924	3348.775
1831.13864	3337.575
1834.30597	3340.875
1837.47122	3336.475
1840.6344	3313.175
1843.7955	3328.075
1846.95454	3322.875
1850.11151	3312.975
1853.26642	3297.075
1856.41926	3316.275
1859.57004	3303.075
1862.71876	3293.475
1865.86542	3289.275
1869.01003	3284.475
1872.15258	3294.775
1875.29308	3277.375
1878.43152	3278.475
1881.56792	3292.575
1884.70227	3272.675
1887.83457	3272.875
1890.96482	3265.275
1894.09304	3261.975
1897.21921	3249.175
1900.34335	3249.675
1903.46544	3253.475
1906.58551	3255.575
1909.70353	3243.075
1912.81953	3245.775
1915.93349	3228.475
1919.04543	3216.075
1922.15534	3206.775
1925.26322	3199.775
1928.36908	3183.275
1931.47292	3179.675
1934.57473	3165.875
1937.67453	3167.975
1940.77232	3154.675
1943.86808	3136.375
1946.96184	3131.875
1950.05358	3122.075
1953.14331	3113.075
1956.23103	3094.575
1959.31675	3089.375
1962.40046	3067.775
1965.48217	3062.575
1968.56188	3073.875
1971.63959	3059.175
1974.7153	3037.775
1977.78901	3034.375
1980.86073	3016.875
1983.93046	2996.675
1986.99819	3001.275
1990.06394	2972.075
1993.1277	2975.675
1996.18947	2962.975
1999.24925	2945.175
2002.30706	2931.775
2005.36288	2915.275
2008.41672	2918.675
2011.46859	2909.075
2014.51848	2902.175
2017.56639	2895.075
2020.61233	2874.275
2023.6563	2879.675
2026.6983	2873.075
2029.73833	2867.775
2032.7764	2860.575
2035.8125	2856.275
2038.84664	2849.175
2041.87881	2834.675
2044.90903	2833.175
2047.93729	2832.375
2050.96359	2822.775
2053.98794	2827.175
2057.01034	2822.775
2060.03078	2816.975
2063.04927	2801.475
2066.06582	2809.575
2069.08042	2811.275
2072.09307	2797.475
2075.10378	2790.275
2078.11255	2779.175
2081.11938	2786.375
2084.12426	2779.275
2087.12722	2786.675
2090.12824	2783.975
2093.12732	2780.275
2096.12447	2796.475
2099.11969	2785.075
2102.11299	2769.075
2105.10435	2781.975
2108.09379	2769.675
2111.08131	2767.075
2114.0669	2769.475
2117.05057	2770.775
2120.03233	2773.375
2123.01216	2784.775
2125.99008	2781.175
2128.96609	2785.575
2131.94018	2783.875
2134.91236	2778.675
2137.88263	2787.875
2140.851	2780.675
2143.81746	2772.275
2146.78201	2767.475
2149.74466	2770.675
2152.7054	2769.775
2155.66425	2764.775
2158.6212	2774.275
2161.57625	2774.275
2164.52941	2767.475
2167.48067	2763.675
2170.43004	2746.175
2173.37752	2761.875
2176.32311	2755.275
2179.26681	2746.375
2182.20863	2748.775
2185.14856	2770.475
2188.08661	2757.775
2191.02278	2746.875
2193.95707	2753.275
2196.88948	2751.675
2199.82001	2746.875
2202.74867	2741.475
2205.67545	2745.775
2208.60037	2742.475
2211.52341	2740.275
2214.44458	2725.875
2217.36388	2708.175
2220.28132	2718.375
2223.1969	2697.575
2226.11061	2695.575
2229.02246	2689.475
2231.93245	2688.975
2234.84058	2672.875
2237.74686	2684.675
2240.65128	2669.775
2243.55385	2665.575
2246.45456	2663.975
2249.35343	2659.475
2252.25044	2666.875
2255.14561	2648.475
2258.03893	2646.175
2260.93041	2623.975
2263.82004	2618.075
2266.70783	2615.375
2269.59378	2612.575
2272.4779	2605.475
2275.36017	2601.375
2278.24061	2596.475
2281.11922	2594.375
2283.996	2587.275
2286.87094	2581.075
2289.74405	2575.675
2292.61534	2567.575
2295.4848	2563.375
2298.35243	2556.575
2301.21824	2550.975
2304.08223	2559.775
2306.94439	2551.575
2309.80474	2552.375
2312.66327	2547.975
2315.51999	2543.475
2318.37489	2545.175
2321.22797	2551.475
2324.07925	2543.175
2326.92871	2532.975
2329.77637	2539.675
2332.62222	2535.375
2335.46626	2531.875
2338.3085	2518.975
2341.14893	2523.475
2343.98756	2520.675
2346.8244	2522.475
2349.65943	2530.775
2352.49267	2525.275
2355.32411	2524.375
2358.15376	2520.375
2360.98161	2521.675
2363.80768	2522.575
2366.63195	2525.875
2369.45444	2516.875
2372.27514	2516.075
2375.09405	2511.175
2377.91118	2514.275
2380.72652	2486.875
2383.54009	2486.175
2386.35187	2475.775
2389.16188	2472.675
2391.97011	2455.175
2394.77657	2445.375
2397.58125	2447.775
2400.38416	2432.075
2403.18529	2450.675
2405.98466	2422.175
2408.78226	2419.975
2411.57809	2413.575
2414.37216	2403.175
2417.16446	2413.175
2419.955	2405.775
2422.74378	2405.375
2425.5308	2392.275
2428.31606	2389.975
2431.09956	2387.275
2433.88131	2381.575
2436.6613	2391.075
2439.43954	2390.975
2442.21603	2392.275
2444.99077	2385.075
2447.76377	2381.675
2450.53501	2388.575
2453.30451	2390.475
2456.07226	2383.375
2458.83827	2382.475
2461.60254	2375.075
2464.36507	2368.275
2467.12586	2367.375
2469.88492	2371.975
2472.64224	2365.175
2475.39782	2366.975
2478.15167	2367.175
2480.90379	2362.875
2483.65417	2368.375
2486.40283	2368.675
2489.14976	2375.975
2491.89497	2364.575
2494.63845	2366.475
2497.3802	2369.075
2500.12024	2351.075
2502.85855	2366.875
2505.59514	2359.775
2508.33002	2356.675
2511.06318	2340.375
2513.79462	2326.775
2516.52435	2328.775
2519.25237	2305.775
2521.97867	2314.875
2524.70327	2316.975
2527.42616	2301.975
2530.14734	2298.875
2532.86681	2299.475
2535.58458	2288.975
2538.30065	2296.175
2541.01501	2285.275
2543.72768	2284.575
2546.43864	2282.675
2549.14791	2288.875
2551.85548	2285.275
2554.56136	2280.275
2557.26554	2281.875
2559.96803	2275.975
2562.66883	2269.175
2565.36794	2269.175
2568.06536	2273.775
2570.7611	2260.975
2573.45514	2261.575
2576.14751	2256.275
2578.83819	2247.375
2581.52719	2255.275
2584.21451	2256.475
2586.90015	2261.475
2589.58411	2257.375
2592.2664	2242.275
2594.94701	2238.375
2597.62594	2230.975
2600.30321	2228.075
2602.9788	2228.575
2605.65273	2215.875
2608.32498	2214.875
2610.99557	2230.275
2613.66449	2220.275
2616.33175	2216.675
2618.99734	2224.775
2621.66128	2222.475
2624.32355	2213.675
2626.98416	2203.775
2629.64311	2216.075
2632.30041	2217.975
2634.95605	2209.075
2637.61004	2205.475
2640.26238	2201.875
2642.91306	2204.875
2645.56209	2196.275
2648.20948	2185.275
2650.85521	2190.975
2653.4993	2185.375
2656.14175	2190.175
2658.78255	2189.275
2661.42171	2190.775
2664.05923	2188.875
2666.6951	2187.575
2669.32934	2196.775
2671.96194	2205.175
2674.59291	2194.475
2677.22224	2198.375
2679.84993	2208.075
2682.476	2186.175
2685.10043	2184.775
2687.72324	2178.475
2690.34441	2190.575
2692.96396	2175.575
2695.58188	2184.775
2698.19818	2181.275
2700.81285	2184.775
2703.4259	2174.075
2706.03733	2160.975
2708.64714	2175.275
2711.25533	2191.175
2713.86191	2164.975
2716.46687	2204.575
2719.07021	2194.775
2721.67194	2213.675
2724.27206	2204.175
2726.87057	2212.475
2729.46747	2210.875
2732.06276	2207.675
2734.65644	2211.375
2737.24852	2213.975
2739.83899	2199.675
2742.42786	2212.375
2745.01513	2204.075
2747.60079	2218.575
2750.18486	2215.975
2752.76733	2215.475
2755.3482	2213.175
2757.92747	2217.775
2760.50515	2218.075
2763.08123	2220.375
2765.65573	2216.575
2768.22863	2214.275
2770.79994	2216.275
2773.36967	2219.375
2775.9378	2221.275
2778.50435	2217.275
2781.06932	2220.675
2783.6327	2221.375
2786.1945	2212.475
2788.75471	2225.375
2791.31335	2211.575
2793.87041	2218.975
2796.42589	2209.275
2798.97979	2217.375
2801.53212	2202.675
2804.08288	2212.975
2806.63206	2206.275
2809.17967	2207.875
2811.72571	2208.475
2814.27018	2198.575
2816.81308	2204.675
2819.35442	2206.975
2821.89419	2203.575
2824.43239	2197.675
2826.96904	2199.975
2829.50412	2193.475
2832.03763	2204.975
2834.56959	2207.175
2837.1	2213.275
2839.62884	2221.875
2842.15613	2246.075
2844.68186	2268.875
2847.20604	2295.675
2849.72867	2303.275
2852.24974	2334.475
2854.76927	2328.475
2857.28724	2333.475
2859.80367	2355.175
2862.31855	2352.375
2864.83189	2367.575
2867.34368	2373.475
2869.85393	2392.575
2872.36264	2401.275
2874.8698	2402.275
2877.37543	2420.275
2879.87952	2437.275
2882.38207	2450.475
2884.88308	2444.375
2887.38256	2449.675
2889.88051	2465.075
2892.37692	2471.875
2894.8718	2477.775
2897.36515	2471.375
2899.85698	2469.275
2902.34727	2468.875
2904.83604	2471.575
2907.32328	2476.275
2909.809	2450.175
2912.29319	2462.875
2914.77587	2470.575
2917.25702	2481.075
2919.73665	2465.075
2922.21476	2452.475
2924.69136	2462.275
2927.16644	2450.075
2929.64	2437.875
2932.11205	2427.775
2934.58258	2421.975
2937.05161	2412.175
2939.51912	2398.375
2941.98513	2379.975
2944.44962	2350.375
2946.91261	2313.775
2949.37409	2305.375
2951.83407	2284.475
2954.29254	2266.875
2956.74951	2252.175
2959.20498	2228.075
2961.65895	2214.475
2964.11142	2204.675
2966.56239	2186.775
2969.01186	2174.675
2971.45984	2152.375
2973.90632	2147.275
2976.35131	2114.775
2978.7948	2108.975
2981.23681	2094.975
2983.67732	2082.875
2986.11635	2070.775
2988.55388	2057.975
2990.98993	2052.875
2993.4245	2032.975
2995.85758	2032.475
2998.28917	2047.975
3000.71928	2027.575
3003.14791	2036.275
3005.57506	2027.475
3008.00073	2011.775
3010.42493	2016.575
3012.84764	2006.975
3015.26888	2004.375
3017.68865	2000.475
3020.10694	2005.675
3022.52376	1989.075
3024.9391	1993.575
3027.35298	1984.575
3029.76539	1980.275
3032.17632	1985.475
3034.5858	1976.075
3036.9938	1986.275
3039.40034	1976.875
3041.80542	1972.375
3044.20903	1980.375
3046.61118	1963.675
3049.01187	1965.175
3051.4111	1963.275
3053.80888	1966.575
3056.20519	1974.075
3058.60005	1977.275
3060.99345	1969.275
3063.3854	1975.075
3065.7759	1976.275
3068.16494	1963.475
3070.55254	1964.475
3072.93868	1962.075
3075.32338	1960.975
3077.70662	1962.975
3080.08842	1953.375
3082.46878	1959.975
3084.84769	1959.375
3087.22515	1969.875
3089.60118	1971.275
3091.97576	1969.775
3094.3489	1970.575
3096.72061	1969.075
3099.09087	1975.075
3101.4597	1968.475
3103.82709	1984.375
3106.19305	1981.275
3108.55757	1984.875
3110.92066	1987.375
3113.28232	1977.675
3115.64255	1980.875
3118.00134	1992.475
3120.35871	1993.575
3122.71466	1998.375
3125.06917	1992.375
3127.42226	1991.775
3129.77393	2004.575
3132.12417	2013.775
3134.47299	2020.175
3136.82039	2024.175
3139.16636	2023.875
3141.51092	2032.175
3143.85406	2043.875
3146.19579	2038.775
3148.53609	2036.775
3150.87499	2044.075
3153.21246	2054.575
3155.54853	2065.775
3157.88318	2064.575
3160.21642	2068.875
3162.54826	2073.975
3164.87868	2080.675
3167.2077	2092.575
3169.5353	2082.975
3171.86151	2086.575
3174.18631	2092.775
3176.5097	2097.575
3178.83169	2095.675
3181.15228	2094.175
3183.47147	2110.275
3185.78926	2120.275
3188.10565	2107.275
3190.42065	2125.575
3192.73424	2132.075
3195.04645	2132.675
3197.35725	2121.875
3199.66667	2137.175
3201.97469	2143.375
3204.28132	2157.775
3206.58656	2157.075
3208.8904	2145.675
3211.19287	2156.275
3213.49394	2157.375
3215.79363	2157.875
3218.09193	2167.675
3220.38884	2166.375
3222.68438	2153.775
3224.97853	2173.175
3227.2713	2170.875
3229.56269	2175.375
3231.8527	2173.975
3234.14133	2171.475
3236.42858	2157.775
3238.71446	2169.975
3240.99896	2176.475
3243.28209	2181.375
3245.56384	2187.775
3247.84423	2187.575
3250.12324	2194.775
3252.40088	2181.275
3254.67715	2186.975
3256.95205	2195.975
3259.22558	2185.775
3261.49775	2172.075
3263.76855	2186.475
3266.03799	2181.675
3268.30606	2186.375
3270.57277	2183.375
3272.83812	2170.875
3275.10211	2170.475
3277.36474	2162.375
3279.62601	2165.475
3281.88593	2165.175
3284.14448	2166.475
3286.40168	2174.675
3288.65753	2169.475
3290.91202	2164.975
3293.16516	2156.875
3295.41695	2147.875
3297.66738	2148.775
3299.91647	2132.475
3302.16421	2119.675
3304.4106	2115.875
3306.65564	2104.675
3308.89933	2093.175
3311.14169	2076.075
3313.38269	2055.375
3315.62236	2053.575
3317.86068	2032.875
3320.09766	2021.975
3322.3333	2013.475
3324.5676	2007.375
3326.80056	1960.475
3329.03219	1963.775
3331.26248	-0.825
3333.49143	-0.025
3335.71905	0.875
