Data from AgNPs_FTO_APTES_UA_50uM_CRN_200uM_R6G_10uM_NaF_0.1M_Addition_RamanShift__1__15-55-35-061.txt Node

Date: Mon Feb 21 15:55:35 GMT 2022
User: TCL
Spectrometer: QEP01345
Trigger mode: 4
Integration Time (sec): 7.000000E0
Scans to average: 10
Electric dark correction enabled: true
Nonlinearity correction enabled: false
Boxcar width: 0
XAxis mode: Raman Shifts
Number of Pixels in Spectrum: 1044
>>>>>Begin Spectral Data<<<<<
46.04893	1.5625
50.45542	-1.2375
54.85868	-1.2375
59.25871	-3.2375
63.6555	51.4625
68.04907	58.9625
72.43941	59.6625
76.82654	62.7625
81.21044	67.0625
85.59113	69.1625
89.96862	70.8625
94.34289	77.7625
98.71396	73.2625
103.08183	79.5625
107.4465	80.9625
111.80798	82.7625
116.16626	81.5625
120.52136	80.7625
124.87327	88.1625
129.222	85.6625
133.56755	91.7625
137.90993	101.5625
142.24913	105.6625
146.58517	119.4625
150.91804	136.7625
155.24774	158.6625
159.57429	194.2625
163.89768	246.0625
168.21792	326.3625
172.53501	437.1625
176.84895	617.5625
181.15975	856.4625
185.46741	1192.9625
189.77193	1659.8625
194.07331	2216.6625
198.37157	2867.5625
202.6667	3513.2625
206.9587	4200.1625
211.24758	4850.0625
215.53334	5520.9625
219.81599	6255.0625
224.09553	7049.7625
228.37195	7900.4625
232.64527	8877.0625
236.91549	9860.8625
241.18261	10853.3625
245.44663	11721.5625
249.70755	12470.2625
253.96539	13143.7625
258.22014	13678.2625
262.4718	14117.8625
266.72039	14444.6625
270.96589	14647.0625
275.20832	14595.6625
279.44768	14443.5625
283.68397	14234.7625
287.91719	14026.4625
292.14735	13924.3625
296.37445	13960.5625
300.59849	14086.1625
304.81948	14322.3625
309.03742	14431.4625
313.25231	14404.8625
317.46415	14183.1625
321.67296	13783.9625
325.87872	13460.5625
330.08145	13342.7625
334.28114	13322.0625
338.47781	13435.5625
342.67145	13642.1625
346.86207	13955.1625
351.04966	14321.0625
355.23424	14747.4625
359.4158	15011.1625
363.59435	15248.0625
367.76989	15384.9625
371.94243	15456.4625
376.11196	15485.1625
380.27849	15563.0625
384.44203	15609.2625
388.60257	15658.3625
392.76012	15745.3625
396.91468	15858.7625
401.06626	16112.4625
405.21485	16292.6625
409.36047	16159.7625
413.50311	15822.9625
417.64277	15482.8625
421.77947	15343.2625
425.9132	15270.4625
430.04396	15294.9625
434.17176	15367.1625
438.2966	15544.2625
442.41849	15859.9625
446.53742	16255.8625
450.6534	16725.3625
454.76644	16963.5625
458.87653	16982.8625
462.98368	16876.7625
467.08789	16675.5625
471.18916	16441.1625
475.2875	16183.6625
479.38291	15902.3625
483.4754	15740.5625
487.56496	15587.9625
491.6516	15510.5625
495.73531	15451.3625
499.81612	15472.9625
503.89401	15606.2625
507.96899	15677.9625
512.04106	15753.2625
516.11023	15800.2625
520.1765	15808.8625
524.23987	15806.8625
528.30034	15763.3625
532.35792	15698.9625
536.41261	15587.4625
540.46441	15362.5625
544.51333	15254.7625
548.55936	15350.6625
552.60252	15548.0625
556.64279	15846.4625
560.6802	16030.1625
564.71473	16080.2625
568.7464	16227.7625
572.7752	16386.8625
576.80114	16445.0625
580.82422	16489.4625
584.84444	16802.0625
588.86181	17411.6625
592.87633	18068.4625
596.888	18365.1625
600.89682	18151.4625
604.9028	18485.9625
608.90594	20451.1625
612.90624	22995.9625
616.90371	21966.5625
620.89834	18104.4625
624.89015	16345.1625
628.87913	16038.7625
632.86528	16138.7625
636.84862	16244.8625
640.82913	16063.0625
644.80683	15715.4625
648.78172	15434.1625
652.75379	15405.1625
656.72306	15640.8625
660.68952	15983.5625
664.65319	15899.2625
668.61405	15548.9625
672.57211	15483.9625
676.52738	15613.9625
680.47986	15615.9625
684.42955	15478.7625
688.37646	15397.4625
692.32058	15433.9625
696.26192	15571.4625
700.20048	15744.5625
704.13626	15776.8625
708.06928	15714.2625
711.99952	15636.3625
715.927	15641.0625
719.85171	15717.1625
723.77365	15719.9625
727.69284	15619.8625
731.60928	15516.7625
735.52295	15491.5625
739.43388	15491.1625
743.34206	15535.0625
747.24749	15586.7625
751.15017	15652.5625
755.05012	15791.5625
758.94733	16161.3625
762.8418	16930.8625
766.73354	18281.9625
770.62254	19682.9625
774.50882	20375.8625
778.39237	19768.4625
782.27321	18378.6625
786.15132	17048.1625
790.02671	16229.6625
793.89938	15824.3625
797.76935	15646.8625
801.6366	15609.5625
805.50115	15495.2625
809.36299	15420.0625
813.22213	15360.2625
817.07857	15329.9625
820.93231	15288.8625
824.78336	15251.9625
828.63172	15263.7625
832.47738	15301.1625
836.32036	15320.9625
840.16066	15341.2625
843.99827	15355.7625
847.8332	15334.9625
851.66546	15328.8625
855.49504	15300.3625
859.32195	15329.1625
863.1462	15316.1625
866.96777	15297.8625
870.78668	15301.2625
874.60293	15318.3625
878.41652	15332.7625
882.22745	15419.1625
886.03573	15515.5625
889.84136	15487.6625
893.64433	15438.7625
897.44466	15354.4625
901.24235	15298.0625
905.0374	15253.8625
908.8298	15211.7625
912.61957	15200.6625
916.40671	15253.2625
920.19121	15343.9625
923.97308	15488.3625
927.75233	15590.9625
931.52895	15634.0625
935.30295	15548.3625
939.07433	15326.3625
942.84309	15138.9625
946.60924	14991.8625
950.37278	14964.6625
954.13371	14915.7625
957.89203	14871.0625
961.64774	14843.8625
965.40086	14832.9625
969.15137	14780.8625
972.89929	14782.3625
976.64461	14830.5625
980.38733	14858.9625
984.12747	14899.0625
987.86502	15012.1625
991.59999	15153.1625
995.33237	15329.0625
999.06217	15656.9625
1002.78939	15944.1625
1006.51404	16154.6625
1010.23611	16349.9625
1013.95561	16456.7625
1017.67255	16500.7625
1021.38692	16359.0625
1025.09872	16227.7625
1028.80796	16207.5625
1032.51465	16396.1625
1036.21877	16632.7625
1039.92035	16711.2625
1043.61937	16632.6625
1047.31584	16452.7625
1051.00976	16246.3625
1054.70114	16111.8625
1058.38998	16015.9625
1062.07627	16074.3625
1065.76003	16145.5625
1069.44126	16256.7625
1073.11995	16401.5625
1076.79611	16618.0625
1080.46974	16812.2625
1084.14085	17015.6625
1087.80943	17191.9625
1091.47549	17303.4625
1095.13903	17203.7625
1098.80005	16957.9625
1102.45857	16718.1625
1106.11456	16590.7625
1109.76805	16515.6625
1113.41903	16633.4625
1117.06751	16796.2625
1120.71348	17081.8625
1124.35696	17339.8625
1127.99793	17603.1625
1131.63641	17699.0625
1135.2724	17447.4625
1138.90589	17188.8625
1142.5369	17017.3625
1146.16542	16895.8625
1149.79145	16865.5625
1153.415	16842.2625
1157.03607	16901.7625
1160.65467	17132.6625
1164.27079	17649.6625
1167.88443	18293.7625
1171.49561	19180.2625
1175.10432	20427.3625
1178.71056	22180.4625
1182.31434	23675.1625
1185.91565	24313.9625
1189.51451	24086.9625
1193.11091	23266.2625
1196.70485	22329.2625
1200.29634	21483.1625
1203.88538	20795.1625
1207.47197	20059.6625
1211.05612	19481.2625
1214.63782	19053.7625
1218.21708	18804.6625
1221.79391	18724.7625
1225.36829	18761.7625
1228.94024	18724.2625
1232.50976	18540.3625
1236.07685	18322.4625
1239.6415	18221.0625
1243.20374	18217.5625
1246.76355	18332.8625
1250.32093	18514.8625
1253.8759	18821.8625
1257.42845	19159.4625
1260.97859	19612.1625
1264.52631	20096.7625
1268.07163	20565.2625
1271.61453	21109.1625
1275.15503	21505.5625
1278.69312	21867.6625
1282.22882	22132.6625
1285.76211	22537.1625
1289.29301	23076.6625
1292.82151	23823.4625
1296.34761	24697.2625
1299.87133	25855.2625
1303.39266	27353.0625
1306.9116	29106.7625
1310.42815	30770.8625
1313.94233	31699.9625
1317.45412	31194.6625
1320.96354	29902.1625
1324.47058	28408.1625
1327.97525	27109.7625
1331.47754	26190.0625
1334.97747	25719.6625
1338.47502	25522.5625
1341.97022	25608.5625
1345.46305	25902.3625
1348.95352	26561.9625
1352.44163	27695.6625
1355.92738	29446.0625
1359.41078	31675.3625
1362.89183	33626.4625
1366.37053	33044.6625
1369.84688	29745.5625
1373.32088	26004.8625
1376.79254	23609.8625
1380.26186	22502.8625
1383.72883	22087.9625
1387.19347	21715.5625
1390.65578	21202.8625
1394.11575	20886.5625
1397.57339	20788.4625
1401.0287	20828.8625
1404.48168	20878.4625
1407.93234	20825.0625
1411.38068	20758.4625
1414.82669	20584.6625
1418.27039	20383.2625
1421.71177	20126.0625
1425.15083	19766.7625
1428.58758	19618.0625
1432.02203	19737.5625
1435.45416	20021.3625
1438.88399	20258.1625
1442.31151	20398.1625
1445.73673	20425.9625
1449.15965	20446.9625
1452.58027	20424.8625
1455.9986	20287.1625
1459.41463	20283.1625
1462.82837	20503.9625
1466.23982	20839.3625
1469.64898	21259.8625
1473.05586	21607.3625
1476.46045	21785.0625
1479.86276	21928.0625
1483.26279	21986.6625
1486.66054	22131.4625
1490.05602	22463.1625
1493.44922	22990.3625
1496.84016	23725.0625
1500.22882	24749.3625
1503.61521	26136.3625
1506.99934	27773.9625
1510.38121	29011.8625
1513.76081	29264.5625
1517.13816	28143.2625
1520.51324	26160.2625
1523.88607	24340.9625
1527.25665	23220.2625
1530.62498	22673.6625
1533.99105	22338.3625
1537.35488	21982.7625
1540.71647	21598.5625
1544.07581	21305.5625
1547.4329	21038.6625
1550.78776	20809.5625
1554.14038	20683.7625
1557.49077	20704.1625
1560.83892	20791.5625
1564.18484	20921.9625
1567.52853	21243.5625
1570.86999	21552.8625
1574.20922	21849.9625
1577.54624	21920.0625
1580.88103	21533.5625
1584.2136	21065.1625
1587.54395	21006.4625
1590.87208	21545.2625
1594.19801	22575.4625
1597.52172	23750.1625
1600.84321	24286.2625
1604.16251	23706.1625
1607.47959	22493.5625
1610.79447	21018.5625
1614.10715	19648.7625
1617.41763	18585.3625
1620.7259	17862.4625
1624.03199	17535.8625
1627.33587	17572.1625
1630.63757	17881.7625
1633.93707	18611.8625
1637.23439	19780.7625
1640.52951	21581.3625
1643.82246	23944.6625
1647.11321	26089.4625
1650.40179	26901.8625
1653.68819	25583.7625
1656.97241	22692.0625
1660.25446	19875.8625
1663.53433	17870.2625
1666.81203	16699.1625
1670.08756	16034.0625
1673.36092	15622.0625
1676.63211	15379.1625
1679.90115	15147.8625
1683.16801	14965.7625
1686.43272	14892.4625
1689.69527	14748.3625
1692.95567	14619.8625
1696.2139	14499.6625
1699.46999	14331.9625
1702.72392	14282.0625
1705.97571	14378.9625
1709.22535	14428.7625
1712.47284	14478.1625
1715.71819	14508.1625
1718.96139	14488.4625
1722.20246	14487.1625
1725.44139	14449.2625
1728.67818	14379.6625
1731.91284	14321.8625
1735.14537	14265.6625
1738.37576	14232.1625
1741.60403	14145.0625
1744.83017	14103.9625
1748.05418	14072.4625
1751.27607	14016.3625
1754.49584	13956.7625
1757.71349	13940.1625
1760.92903	13910.1625
1764.14244	13871.4625
1767.35375	13858.6625
1770.56294	13830.1625
1773.77002	13818.9625
1776.97499	13871.5625
1780.17785	13896.1625
1783.37861	13924.5625
1786.57727	13897.8625
1789.77382	13893.7625
1792.96828	13891.6625
1796.16064	13875.0625
1799.3509	13841.1625
1802.53907	13791.9625
1805.72514	13794.1625
1808.90913	13762.5625
1812.09102	13779.7625
1815.27083	13737.7625
1818.44856	13731.4625
1821.6242	13713.0625
1824.79776	13692.4625
1827.96924	13716.0625
1831.13864	13685.3625
1834.30597	13669.4625
1837.47122	13676.7625
1840.6344	13654.9625
1843.7955	13650.2625
1846.95454	13644.0625
1850.11151	13659.4625
1853.26642	13636.2625
1856.41926	13639.0625
1859.57004	13617.9625
1862.71876	13585.9625
1865.86542	13594.9625
1869.01003	13570.1625
1872.15258	13576.5625
1875.29308	13554.6625
1878.43152	13531.8625
1881.56792	13575.2625
1884.70227	13516.7625
1887.83457	13495.4625
1890.96482	13487.7625
1894.09304	13483.8625
1897.21921	13493.5625
1900.34335	13487.3625
1903.46544	13449.6625
1906.58551	13453.1625
1909.70353	13464.5625
1912.81953	13431.0625
1915.93349	13433.6625
1919.04543	13378.4625
1922.15534	13376.5625
1925.26322	13346.3625
1928.36908	13349.1625
1931.47292	13325.4625
1934.57473	13294.9625
1937.67453	13282.6625
1940.77232	13248.0625
1943.86808	13203.2625
1946.96184	13207.3625
1950.05358	13148.1625
1953.14331	13112.3625
1956.23103	13070.5625
1959.31675	13059.2625
1962.40046	13028.0625
1965.48217	12992.2625
1968.56188	12930.0625
1971.63959	12931.9625
1974.7153	12903.9625
1977.78901	12871.6625
1980.86073	12827.0625
1983.93046	12818.8625
1986.99819	12783.2625
1990.06394	12736.1625
1993.1277	12718.3625
1996.18947	12651.7625
1999.24925	12639.9625
2002.30706	12581.3625
2005.36288	12526.1625
2008.41672	12532.0625
2011.46859	12477.7625
2014.51848	12484.3625
2017.56639	12453.2625
2020.61233	12394.2625
2023.6563	12382.2625
2026.6983	12356.1625
2029.73833	12351.4625
2032.7764	12308.3625
2035.8125	12272.2625
2038.84664	12265.1625
2041.87881	12265.7625
2044.90903	12235.2625
2047.93729	12250.6625
2050.96359	12227.6625
2053.98794	12218.1625
2057.01034	12188.0625
2060.03078	12197.1625
2063.04927	12163.3625
2066.06582	12169.5625
2069.08042	12134.0625
2072.09307	12161.8625
2075.10378	12135.8625
2078.11255	12145.8625
2081.11938	12152.1625
2084.12426	12151.7625
2087.12722	12164.1625
2090.12824	12165.9625
2093.12732	12162.3625
2096.12447	12132.2625
2099.11969	12133.5625
2102.11299	12168.3625
2105.10435	12173.3625
2108.09379	12168.2625
2111.08131	12192.2625
2114.0669	12178.5625
2117.05057	12164.1625
2120.03233	12208.1625
2123.01216	12224.9625
2125.99008	12250.2625
2128.96609	12270.3625
2131.94018	12288.5625
2134.91236	12279.2625
2137.88263	12293.9625
2140.851	12311.4625
2143.81746	12304.3625
2146.78201	12287.6625
2149.74466	12310.0625
2152.7054	12307.8625
2155.66425	12324.0625
2158.6212	12329.4625
2161.57625	12316.5625
2164.52941	12308.0625
2167.48067	12322.2625
2170.43004	12319.8625
2173.37752	12324.2625
2176.32311	12321.8625
2179.26681	12290.0625
2182.20863	12318.6625
2185.14856	12367.5625
2188.08661	12335.1625
2191.02278	12359.3625
2193.95707	12349.1625
2196.88948	12327.6625
2199.82001	12312.4625
2202.74867	12329.4625
2205.67545	12317.8625
2208.60037	12279.7625
2211.52341	12287.1625
2214.44458	12274.9625
2217.36388	12254.1625
2220.28132	12243.3625
2223.1969	12233.5625
2226.11061	12199.1625
2229.02246	12192.5625
2231.93245	12195.8625
2234.84058	12173.1625
2237.74686	12122.8625
2240.65128	12130.0625
2243.55385	12159.6625
2246.45456	12143.2625
2249.35343	12132.1625
2252.25044	12109.2625
2255.14561	12081.9625
2258.03893	12106.5625
2260.93041	12030.4625
2263.82004	12076.2625
2266.70783	12015.3625
2269.59378	11972.4625
2272.4779	11981.2625
2275.36017	11955.4625
2278.24061	11953.3625
2281.11922	11916.3625
2283.996	11917.1625
2286.87094	11901.4625
2289.74405	11854.9625
2292.61534	11863.4625
2295.4848	11872.0625
2298.35243	11865.1625
2301.21824	11869.4625
2304.08223	11867.3625
2306.94439	11864.5625
2309.80474	11870.0625
2312.66327	11863.9625
2315.51999	11832.9625
2318.37489	11833.1625
2321.22797	11832.3625
2324.07925	11813.2625
2326.92871	11812.4625
2329.77637	11785.8625
2332.62222	11806.4625
2335.46626	11804.2625
2338.3085	11759.4625
2341.14893	11772.2625
2343.98756	11744.1625
2346.8244	11767.1625
2349.65943	11718.9625
2352.49267	11716.5625
2355.32411	11725.0625
2358.15376	11738.5625
2360.98161	11735.7625
2363.80768	11744.4625
2366.63195	11727.3625
2369.45444	11704.8625
2372.27514	11728.0625
2375.09405	11693.3625
2377.91118	11698.8625
2380.72652	11683.1625
2383.54009	11648.2625
2386.35187	11618.5625
2389.16188	11588.4625
2391.97011	11582.1625
2394.77657	11550.4625
2397.58125	11548.9625
2400.38416	11587.9625
2403.18529	11540.2625
2405.98466	11529.6625
2408.78226	11483.3625
2411.57809	11476.8625
2414.37216	11455.5625
2417.16446	11420.2625
2419.955	11426.3625
2422.74378	11443.0625
2425.5308	11410.5625
2428.31606	11430.8625
2431.09956	11416.4625
2433.88131	11421.5625
2436.6613	11428.7625
2439.43954	11405.5625
2442.21603	11394.6625
2444.99077	11406.3625
2447.76377	11422.5625
2450.53501	11395.7625
2453.30451	11403.1625
2456.07226	11377.7625
2458.83827	11397.8625
2461.60254	11368.2625
2464.36507	11379.3625
2467.12586	11374.9625
2469.88492	11363.4625
2472.64224	11361.3625
2475.39782	11368.5625
2478.15167	11367.4625
2480.90379	11381.8625
2483.65417	11372.1625
2486.40283	11367.8625
2489.14976	11394.7625
2491.89497	11391.2625
2494.63845	11402.6625
2497.3802	11378.0625
2500.12024	11373.5625
2502.85855	11386.6625
2505.59514	11381.4625
2508.33002	11383.1625
2511.06318	11330.5625
2513.79462	11343.0625
2516.52435	11316.5625
2519.25237	11278.0625
2521.97867	11287.1625
2524.70327	11264.9625
2527.42616	11269.3625
2530.14734	11238.5625
2532.86681	11273.5625
2535.58458	11264.6625
2538.30065	11243.5625
2541.01501	11264.1625
2543.72768	11229.5625
2546.43864	11212.9625
2549.14791	11203.9625
2551.85548	11217.7625
2554.56136	11171.0625
2557.26554	11152.1625
2559.96803	11135.8625
2562.66883	11157.6625
2565.36794	11137.1625
2568.06536	11152.1625
2570.7611	11113.9625
2573.45514	11115.4625
2576.14751	11105.5625
2578.83819	11057.0625
2581.52719	11049.1625
2584.21451	11062.6625
2586.90015	11061.7625
2589.58411	11031.4625
2592.2664	11045.4625
2594.94701	11006.9625
2597.62594	11007.7625
2600.30321	11032.2625
2602.9788	11032.8625
2605.65273	11007.6625
2608.32498	10981.2625
2610.99557	10998.8625
2613.66449	10989.0625
2616.33175	10985.3625
2618.99734	10963.4625
2621.66128	10963.2625
2624.32355	10944.7625
2626.98416	10954.4625
2629.64311	10926.8625
2632.30041	10887.5625
2634.95605	10884.5625
2637.61004	10864.0625
2640.26238	10892.1625
2642.91306	10873.0625
2645.56209	10858.8625
2648.20948	10874.2625
2650.85521	10830.9625
2653.4993	10837.0625
2656.14175	10826.5625
2658.78255	10840.6625
2661.42171	10835.4625
2664.05923	10865.1625
2666.6951	10882.7625
2669.32934	10908.7625
2671.96194	10900.2625
2674.59291	10905.6625
2677.22224	10886.5625
2679.84993	10904.6625
2682.476	10861.0625
2685.10043	10864.6625
2687.72324	10859.2625
2690.34441	10875.9625
2692.96396	10861.5625
2695.58188	10872.2625
2698.19818	10878.5625
2700.81285	10846.8625
2703.4259	10854.2625
2706.03733	10817.3625
2708.64714	10848.4625
2711.25533	10880.7625
2713.86191	10870.9625
2716.46687	10897.8625
2719.07021	10921.7625
2721.67194	10953.4625
2724.27206	10924.9625
2726.87057	10924.6625
2729.46747	10926.9625
2732.06276	10932.7625
2734.65644	10934.4625
2737.24852	10938.9625
2739.83899	10925.7625
2742.42786	10934.3625
2745.01513	10876.2625
2747.60079	10921.4625
2750.18486	10871.8625
2752.76733	10894.7625
2755.3482	10869.8625
2757.92747	10839.7625
2760.50515	10819.4625
2763.08123	10829.2625
2765.65573	10835.0625
2768.22863	10804.9625
2770.79994	10781.7625
2773.36967	10777.2625
2775.9378	10768.8625
2778.50435	10754.3625
2781.06932	10746.6625
2783.6327	10757.8625
2786.1945	10777.1625
2788.75471	10749.0625
2791.31335	10746.6625
2793.87041	10722.1625
2796.42589	10681.7625
2798.97979	10693.3625
2801.53212	10661.2625
2804.08288	10671.3625
2806.63206	10632.6625
2809.17967	10604.5625
2811.72571	10588.7625
2814.27018	10603.4625
2816.81308	10570.9625
2819.35442	10559.8625
2821.89419	10561.2625
2824.43239	10578.9625
2826.96904	10564.0625
2829.50412	10567.6625
2832.03763	10557.6625
2834.56959	10587.9625
2837.1	10568.6625
2839.62884	10563.1625
2842.15613	10559.1625
2844.68186	10572.0625
2847.20604	10585.0625
2849.72867	10578.8625
2852.24974	10592.0625
2854.76927	10561.3625
2857.28724	10519.6625
2859.80367	10550.7625
2862.31855	10548.7625
2864.83189	10536.5625
2867.34368	10504.6625
2869.85393	10514.1625
2872.36264	10504.3625
2874.8698	10493.8625
2877.37543	10487.9625
2879.87952	10515.9625
2882.38207	10520.4625
2884.88308	10494.6625
2887.38256	10534.6625
2889.88051	10545.5625
2892.37692	10531.3625
2894.8718	10502.9625
2897.36515	10546.5625
2899.85698	10551.3625
2902.34727	10565.5625
2904.83604	10574.7625
2907.32328	10608.6625
2909.809	10569.3625
2912.29319	10614.2625
2914.77587	10584.9625
2917.25702	10598.7625
2919.73665	10591.4625
2922.21476	10620.3625
2924.69136	10582.2625
2927.16644	10608.7625
2929.64	10553.8625
2932.11205	10590.0625
2934.58258	10533.3625
2937.05161	10546.1625
2939.51912	10576.5625
2941.98513	10567.3625
2944.44962	10525.4625
2946.91261	10475.0625
2949.37409	10520.2625
2951.83407	10494.8625
2954.29254	10442.3625
2956.74951	10482.2625
2959.20498	10456.7625
2961.65895	10432.9625
2964.11142	10415.0625
2966.56239	10419.8625
2969.01186	10436.1625
2971.45984	10403.3625
2973.90632	10382.9625
2976.35131	10366.8625
2978.7948	10361.5625
2981.23681	10320.6625
2983.67732	10326.3625
2986.11635	10288.4625
2988.55388	10299.8625
2990.98993	10251.7625
2993.4245	10270.3625
2995.85758	10250.2625
2998.28917	10237.3625
3000.71928	10242.6625
3003.14791	10183.3625
3005.57506	10206.3625
3008.00073	10176.0625
3010.42493	10145.4625
3012.84764	10156.8625
3015.26888	10154.9625
3017.68865	10129.0625
3020.10694	10119.3625
3022.52376	10110.9625
3024.9391	10079.2625
3027.35298	10096.3625
3029.76539	10084.4625
3032.17632	10059.2625
3034.5858	10033.2625
3036.9938	10034.4625
3039.40034	10032.9625
3041.80542	10028.2625
3044.20903	9994.1625
3046.61118	10000.6625
3049.01187	10002.1625
3051.4111	9996.9625
3053.80888	9974.3625
3056.20519	9948.4625
3058.60005	9960.1625
3060.99345	9938.8625
3063.3854	9925.3625
3065.7759	9912.1625
3068.16494	9877.0625
3070.55254	9863.3625
3072.93868	9834.9625
3075.32338	9797.7625
3077.70662	9808.3625
3080.08842	9784.6625
3082.46878	9783.5625
3084.84769	9764.5625
3087.22515	9761.2625
3089.60118	9761.1625
3091.97576	9764.3625
3094.3489	9771.7625
3096.72061	9770.9625
3099.09087	9782.3625
3101.4597	9772.8625
3103.82709	9746.2625
3106.19305	9781.8625
3108.55757	9784.5625
3110.92066	9741.4625
3113.28232	9727.0625
3115.64255	9679.3625
3118.00134	9684.5625
3120.35871	9692.0625
3122.71466	9686.3625
3125.06917	9693.0625
3127.42226	9640.1625
3129.77393	9658.6625
3132.12417	9619.9625
3134.47299	9632.8625
3136.82039	9644.7625
3139.16636	9634.4625
3141.51092	9632.0625
3143.85406	9637.2625
3146.19579	9644.7625
3148.53609	9629.5625
3150.87499	9687.4625
3153.21246	9675.2625
3155.54853	9715.2625
3157.88318	9703.4625
3160.21642	9729.8625
3162.54826	9701.8625
3164.87868	9708.8625
3167.2077	9682.9625
3169.5353	9677.8625
3171.86151	9694.9625
3174.18631	9707.8625
3176.5097	9677.7625
3178.83169	9666.7625
3181.15228	9654.1625
3183.47147	9654.9625
3185.78926	9650.0625
3188.10565	9637.0625
3190.42065	9643.0625
3192.73424	9618.4625
3195.04645	9638.1625
3197.35725	9633.3625
3199.66667	9633.7625
3201.97469	9644.3625
3204.28132	9635.3625
3206.58656	9632.6625
3208.8904	9644.5625
3211.19287	9628.5625
3213.49394	9655.5625
3215.79363	9652.9625
3218.09193	9665.7625
3220.38884	9673.9625
3222.68438	9658.2625
3224.97853	9646.6625
3227.2713	9652.3625
3229.56269	9613.3625
3231.8527	9614.7625
3234.14133	9613.4625
3236.42858	9601.9625
3238.71446	9599.3625
3240.99896	9573.3625
3243.28209	9555.7625
3245.56384	9562.9625
3247.84423	9564.9625
3250.12324	9534.8625
3252.40088	9550.0625
3254.67715	9543.1625
3256.95205	9531.0625
3259.22558	9538.5625
3261.49775	9512.4625
3263.76855	9547.8625
3266.03799	9531.9625
3268.30606	9508.0625
3270.57277	9485.8625
3272.83812	9471.9625
3275.10211	9456.2625
3277.36474	9441.7625
3279.62601	9445.9625
3281.88593	9411.9625
3284.14448	9413.0625
3286.40168	9419.5625
3288.65753	9412.6625
3290.91202	9455.4625
3293.16516	9410.5625
3295.41695	9387.8625
3297.66738	9352.9625
3299.91647	9301.9625
3302.16421	9257.8625
3304.4106	9231.6625
3306.65564	9158.7625
3308.89933	9108.2625
3311.14169	9041.8625
3313.38269	8940.0625
3315.62236	8913.4625
3317.86068	8837.2625
3320.09766	8763.7625
3322.3333	8724.5625
3324.5676	8705.8625
3326.80056	8526.1625
3329.03219	8506.9625
3331.26248	3.1625
3333.49143	-0.7375
3335.71905	1.7625
