Data from AgNPs_FTO_APTES_UA_50uM_CRN_2uM_R6G_10uM_NaF_0.1M_Addition_RamanShift__24__12-22-04-791.txt Node

Date: Mon Feb 21 12:22:04 GMT 2022
User: TCL
Spectrometer: QEP01345
Trigger mode: 4
Integration Time (sec): 7.000000E0
Scans to average: 10
Electric dark correction enabled: true
Nonlinearity correction enabled: false
Boxcar width: 0
XAxis mode: Raman Shifts
Number of Pixels in Spectrum: 1044
>>>>>Begin Spectral Data<<<<<
46.04893	-0.4375
50.45542	-0.6375
54.85868	-1.6375
59.25871	-1.8375
63.6555	81.7625
68.04907	88.0625
72.43941	87.5625
76.82654	91.5625
81.21044	94.2625
85.59113	98.1625
89.96862	99.1625
94.34289	103.7625
98.71396	107.5625
103.08183	111.1625
107.4465	112.7625
111.80798	113.6625
116.16626	115.5625
120.52136	117.7625
124.87327	127.9625
129.222	127.7625
133.56755	138.6625
137.90993	146.8625
142.24913	157.4625
146.58517	178.6625
150.91804	204.8625
155.24774	245.3625
159.57429	301.7625
163.89768	382.1625
168.21792	510.4625
172.53501	695.0625
176.84895	964.7625
181.15975	1354.4625
185.46741	1911.7625
189.77193	2630.1625
194.07331	3520.6625
198.37157	4537.3625
202.6667	5612.9625
206.9587	6672.2625
211.24758	7734.7625
215.53334	8832.2625
219.81599	9995.1625
224.09553	11295.5625
228.37195	12761.8625
232.64527	14392.5625
236.91549	16004.7625
241.18261	17614.8625
245.44663	19016.6625
249.70755	20257.8625
253.96539	21355.3625
258.22014	22297.1625
262.4718	22996.8625
266.72039	23533.5625
270.96589	23834.3625
275.20832	23829.1625
279.44768	23637.8625
283.68397	23407.3625
287.91719	23209.1625
292.14735	23208.5625
296.37445	23335.5625
300.59849	23673.2625
304.81948	24110.4625
309.03742	24389.0625
313.25231	24235.8625
317.46415	23488.5625
321.67296	22432.9625
325.87872	21527.1625
330.08145	21156.4625
334.28114	21190.3625
338.47781	21492.4625
342.67145	21888.6625
346.86207	22488.6625
351.04966	23287.1625
355.23424	24275.9625
359.4158	25037.4625
363.59435	25503.8625
367.76989	25741.3625
371.94243	25818.6625
376.11196	25824.7625
380.27849	25809.4625
384.44203	25865.9625
388.60257	25775.0625
392.76012	25803.8625
396.91468	26078.7625
401.06626	26614.3625
405.21485	26976.6625
409.36047	26816.2625
413.50311	26138.6625
417.64277	25476.7625
421.77947	25148.4625
425.9132	25043.2625
430.04396	25168.9625
434.17176	25284.1625
438.2966	25567.9625
442.41849	26030.8625
446.53742	26714.4625
450.6534	27516.5625
454.76644	28059.7625
458.87653	28323.1625
462.98368	28199.2625
467.08789	27827.3625
471.18916	27278.0625
475.2875	26741.8625
479.38291	26358.0625
483.4754	26089.1625
487.56496	25767.8625
491.6516	25474.0625
495.73531	25295.9625
499.81612	25247.1625
503.89401	25357.5625
507.96899	25495.8625
512.04106	25533.0625
516.11023	25621.0625
520.1765	25698.0625
524.23987	25604.1625
528.30034	25366.8625
532.35792	25098.9625
536.41261	24784.3625
540.46441	24500.1625
544.51333	24409.1625
548.55936	24630.2625
552.60252	25092.7625
556.64279	25645.1625
560.6802	25958.6625
564.71473	26226.7625
568.7464	26850.5625
572.7752	27342.5625
576.80114	27273.9625
580.82422	27119.1625
584.84444	27124.3625
588.86181	27316.1625
592.87633	27662.7625
596.888	27988.0625
600.89682	28403.5625
604.9028	30220.2625
608.90594	35155.7625
612.90624	40884.8625
616.90371	38738.6625
620.89834	30612.0625
624.89015	26967.9625
628.87913	26386.6625
632.86528	26472.0625
636.84862	26418.8625
640.82913	25993.9625
644.80683	25091.1625
648.78172	24414.4625
652.75379	24386.1625
656.72306	24978.2625
660.68952	25795.5625
664.65319	25696.6625
668.61405	25013.1625
672.57211	24771.6625
676.52738	24729.0625
680.47986	24730.1625
684.42955	24532.3625
688.37646	24514.8625
692.32058	24691.3625
696.26192	24929.4625
700.20048	25176.0625
704.13626	25313.2625
708.06928	25217.8625
711.99952	24990.9625
715.927	24965.5625
719.85171	25069.5625
723.77365	25034.9625
727.69284	24736.8625
731.60928	24509.8625
735.52295	24458.7625
739.43388	24530.5625
743.34206	24657.2625
747.24749	24811.5625
751.15017	24998.9625
755.05012	25457.8625
758.94733	26323.7625
762.8418	28240.1625
766.73354	31286.7625
770.62254	34112.8625
774.50882	35236.3625
778.39237	33781.1625
782.27321	30523.6625
786.15132	27567.1625
790.02671	25865.5625
793.89938	25058.4625
797.76935	24724.3625
801.6366	24637.2625
805.50115	24533.4625
809.36299	24488.2625
813.22213	24372.2625
817.07857	24311.1625
820.93231	24315.8625
824.78336	24265.2625
828.63172	24312.3625
832.47738	24360.7625
836.32036	24401.5625
840.16066	24419.9625
843.99827	24451.1625
847.8332	24432.0625
851.66546	24337.0625
855.49504	24265.1625
859.32195	24234.0625
863.1462	24152.3625
866.96777	24080.7625
870.78668	24056.7625
874.60293	24083.1625
878.41652	24139.5625
882.22745	24228.7625
886.03573	24367.1625
889.84136	24315.1625
893.64433	24196.5625
897.44466	24142.0625
901.24235	24034.4625
905.0374	23961.7625
908.8298	23833.3625
912.61957	23837.4625
916.40671	23994.9625
920.19121	24260.3625
923.97308	24534.7625
927.75233	24781.0625
931.52895	24776.7625
935.30295	24575.3625
939.07433	24104.0625
942.84309	23676.8625
946.60924	23528.4625
950.37278	23448.1625
954.13371	23323.3625
957.89203	23153.4625
961.64774	23096.7625
965.40086	23009.0625
969.15137	22941.3625
972.89929	22921.4625
976.64461	22848.5625
980.38733	22881.8625
984.12747	22969.5625
987.86502	23145.3625
991.59999	23485.3625
995.33237	23954.2625
999.06217	24737.7625
1002.78939	25667.0625
1006.51404	26381.6625
1010.23611	26841.5625
1013.95561	27088.6625
1017.67255	27180.3625
1021.38692	26981.3625
1025.09872	26799.7625
1028.80796	27037.5625
1032.51465	27672.0625
1036.21877	28288.9625
1039.92035	28403.2625
1043.61937	27986.8625
1047.31584	27248.3625
1051.00976	26444.0625
1054.70114	25939.9625
1058.38998	25832.2625
1062.07627	25929.7625
1065.76003	26035.1625
1069.44126	26137.6625
1073.11995	26403.9625
1076.79611	26650.1625
1080.46974	26941.4625
1084.14085	27257.7625
1087.80943	27685.9625
1091.47549	27812.3625
1095.13903	27534.8625
1098.80005	26995.4625
1102.45857	26447.2625
1106.11456	26151.1625
1109.76805	26219.7625
1113.41903	26550.4625
1117.06751	27069.5625
1120.71348	27746.6625
1124.35696	28402.1625
1127.99793	28952.7625
1131.63641	28898.7625
1135.2724	28269.6625
1138.90589	27619.8625
1142.5369	27164.0625
1146.16542	26914.4625
1149.79145	26755.0625
1153.415	26887.0625
1157.03607	27141.9625
1160.65467	27620.7625
1164.27079	28499.4625
1167.88443	29809.8625
1171.49561	31694.4625
1175.10432	34444.1625
1178.71056	38070.0625
1182.31434	41310.6625
1185.91565	42922.7625
1189.51451	42631.8625
1193.11091	40901.1625
1196.70485	38680.7625
1200.29634	36709.2625
1203.88538	35123.0625
1207.47197	33552.1625
1211.05612	32374.1625
1214.63782	31690.0625
1218.21708	31518.7625
1221.79391	31604.0625
1225.36829	31707.5625
1228.94024	31601.4625
1232.50976	31344.8625
1236.07685	31088.8625
1239.6415	30954.6625
1243.20374	30955.5625
1246.76355	31177.3625
1250.32093	31530.6625
1253.8759	32233.9625
1257.42845	33162.7625
1260.97859	34078.7625
1264.52631	34960.4625
1268.07163	35829.8625
1271.61453	36738.0625
1275.15503	37777.3625
1278.69312	38737.6625
1282.22882	39561.8625
1285.76211	40424.6625
1289.29301	41346.1625
1292.82151	42373.9625
1296.34761	43748.0625
1299.87133	45768.1625
1303.39266	48854.0625
1306.9116	53043.8625
1310.42815	57360.2625
1313.94233	59607.4625
1317.45412	58810.5625
1320.96354	56377.9625
1324.47058	53594.9625
1327.97525	51257.0625
1331.47754	49879.5625
1334.97747	49738.2625
1338.47502	50352.4625
1341.97022	51229.3625
1345.46305	51822.3625
1348.95352	52224.9625
1352.44163	53028.2625
1355.92738	55166.0625
1359.41078	59604.3625
1362.89183	63605.7625
1366.37053	61757.1625
1369.84688	54508.1625
1373.32088	47517.2625
1376.79254	43045.9625
1380.26186	40788.2625
1383.72883	39713.2625
1387.19347	38879.7625
1390.65578	38220.5625
1394.11575	37860.9625
1397.57339	38069.7625
1401.0287	38691.9625
1404.48168	39485.2625
1407.93234	40260.7625
1411.38068	40835.7625
1414.82669	40777.7625
1418.27039	39899.3625
1421.71177	38636.9625
1425.15083	37539.4625
1428.58758	36944.3625
1432.02203	36932.2625
1435.45416	37215.7625
1438.88399	37521.3625
1442.31151	37692.9625
1445.73673	38023.6625
1449.15965	38414.9625
1452.58027	38506.9625
1455.9986	38463.0625
1459.41463	38503.9625
1462.82837	38888.9625
1466.23982	39606.6625
1469.64898	40408.3625
1473.05586	40916.7625
1476.46045	41130.2625
1479.86276	41434.2625
1483.26279	41814.8625
1486.66054	42367.1625
1490.05602	43210.0625
1493.44922	44406.4625
1496.84016	45707.8625
1500.22882	47792.6625
1503.61521	50819.2625
1506.99934	54456.0625
1510.38121	57220.7625
1513.76081	57395.3625
1517.13816	54428.5625
1520.51324	49853.1625
1523.88607	45865.6625
1527.25665	43372.1625
1530.62498	41981.9625
1533.99105	41139.1625
1537.35488	40644.8625
1540.71647	40343.2625
1544.07581	40084.0625
1547.4329	39784.7625
1550.78776	39413.8625
1554.14038	39208.0625
1557.49077	39237.4625
1560.83892	39448.3625
1564.18484	39778.9625
1567.52853	40126.7625
1570.86999	40336.0625
1574.20922	40479.9625
1577.54624	40366.0625
1580.88103	39500.9625
1584.2136	38616.6625
1587.54395	38871.3625
1590.87208	40461.6625
1594.19801	43165.1625
1597.52172	46203.0625
1600.84321	47385.0625
1604.16251	45914.8625
1607.47959	42849.8625
1610.79447	39405.0625
1614.10715	36177.4625
1617.41763	33699.9625
1620.7259	32064.2625
1624.03199	31314.3625
1627.33587	31407.4625
1630.63757	32237.9625
1633.93707	34062.9625
1637.23439	36629.3625
1640.52951	40017.5625
1643.82246	43864.0625
1647.11321	47295.2625
1650.40179	48455.1625
1653.68819	45723.5625
1656.97241	40148.7625
1660.25446	34591.0625
1663.53433	30661.3625
1666.81203	28262.4625
1670.08756	26791.4625
1673.36092	25918.2625
1676.63211	25343.0625
1679.90115	24908.9625
1683.16801	24540.1625
1686.43272	24277.9625
1689.69527	24113.5625
1692.95567	23932.1625
1696.2139	23757.1625
1699.46999	23583.4625
1702.72392	23484.7625
1705.97571	23559.4625
1709.22535	23680.1625
1712.47284	23693.3625
1715.71819	23727.3625
1718.96139	23660.1625
1722.20246	23601.5625
1725.44139	23511.3625
1728.67818	23364.9625
1731.91284	23244.3625
1735.14537	23156.2625
1738.37576	23048.4625
1741.60403	22986.3625
1744.83017	22908.3625
1748.05418	22806.9625
1751.27607	22729.6625
1754.49584	22624.0625
1757.71349	22596.5625
1760.92903	22569.1625
1764.14244	22569.9625
1767.35375	22546.4625
1770.56294	22547.4625
1773.77002	22552.0625
1776.97499	22578.6625
1780.17785	22576.6625
1783.37861	22572.7625
1786.57727	22541.6625
1789.77382	22569.8625
1792.96828	22567.2625
1796.16064	22532.4625
1799.3509	22475.6625
1802.53907	22451.4625
1805.72514	22427.9625
1808.90913	22344.8625
1812.09102	22330.7625
1815.27083	22271.6625
1818.44856	22269.2625
1821.6242	22252.5625
1824.79776	22240.0625
1827.96924	22238.8625
1831.13864	22217.2625
1834.30597	22210.8625
1837.47122	22211.1625
1840.6344	22197.3625
1843.7955	22171.2625
1846.95454	22173.2625
1850.11151	22180.8625
1853.26642	22178.6625
1856.41926	22255.5625
1859.57004	22254.5625
1862.71876	22218.6625
1865.86542	22205.6625
1869.01003	22234.0625
1872.15258	22245.4625
1875.29308	22220.8625
1878.43152	22274.6625
1881.56792	22298.9625
1884.70227	22284.8625
1887.83457	22248.1625
1890.96482	22245.1625
1894.09304	22225.3625
1897.21921	22239.3625
1900.34335	22241.9625
1903.46544	22216.8625
1906.58551	22251.7625
1909.70353	22246.3625
1912.81953	22245.6625
1915.93349	22199.4625
1919.04543	22170.9625
1922.15534	22153.7625
1925.26322	22108.8625
1928.36908	22062.5625
1931.47292	22000.9625
1934.57473	21892.5625
1937.67453	21889.2625
1940.77232	21806.0625
1943.86808	21741.6625
1946.96184	21684.7625
1950.05358	21595.2625
1953.14331	21512.7625
1956.23103	21443.7625
1959.31675	21372.2625
1962.40046	21330.2625
1965.48217	21318.6625
1968.56188	21251.6625
1971.63959	21183.4625
1974.7153	21129.6625
1977.78901	21050.1625
1980.86073	21007.3625
1983.93046	20938.4625
1986.99819	20856.9625
1990.06394	20806.6625
1993.1277	20785.4625
1996.18947	20727.7625
1999.24925	20659.2625
2002.30706	20578.5625
2005.36288	20516.2625
2008.41672	20498.0625
2011.46859	20387.7625
2014.51848	20359.9625
2017.56639	20334.6625
2020.61233	20297.6625
2023.6563	20245.4625
2026.6983	20196.6625
2029.73833	20168.3625
2032.7764	20161.3625
2035.8125	20146.1625
2038.84664	20095.6625
2041.87881	20100.1625
2044.90903	20036.4625
2047.93729	19992.7625
2050.96359	19999.4625
2053.98794	19968.3625
2057.01034	19929.8625
2060.03078	19926.9625
2063.04927	19882.6625
2066.06582	19867.5625
2069.08042	19877.3625
2072.09307	19849.8625
2075.10378	19846.3625
2078.11255	19812.5625
2081.11938	19818.9625
2084.12426	19843.3625
2087.12722	19804.4625
2090.12824	19796.9625
2093.12732	19839.8625
2096.12447	19850.5625
2099.11969	19793.6625
2102.11299	19779.4625
2105.10435	19817.0625
2108.09379	19822.3625
2111.08131	19917.1625
2114.0669	19882.2625
2117.05057	19883.3625
2120.03233	19859.8625
2123.01216	19906.4625
2125.99008	19912.0625
2128.96609	19953.4625
2131.94018	19933.4625
2134.91236	20005.3625
2137.88263	20022.5625
2140.851	20049.2625
2143.81746	20035.0625
2146.78201	20015.6625
2149.74466	20030.3625
2152.7054	20018.7625
2155.66425	20015.2625
2158.6212	20035.5625
2161.57625	19996.2625
2164.52941	20031.7625
2167.48067	20010.9625
2170.43004	20025.1625
2173.37752	20025.4625
2176.32311	19993.0625
2179.26681	20000.4625
2182.20863	20023.6625
2185.14856	20050.8625
2188.08661	20067.9625
2191.02278	20071.7625
2193.95707	20078.0625
2196.88948	20051.2625
2199.82001	20012.3625
2202.74867	20020.0625
2205.67545	20030.8625
2208.60037	19994.4625
2211.52341	19997.2625
2214.44458	19996.8625
2217.36388	19964.3625
2220.28132	19950.3625
2223.1969	19921.3625
2226.11061	19871.4625
2229.02246	19824.3625
2231.93245	19815.4625
2234.84058	19787.2625
2237.74686	19719.8625
2240.65128	19727.9625
2243.55385	19721.2625
2246.45456	19697.4625
2249.35343	19717.5625
2252.25044	19713.2625
2255.14561	19681.6625
2258.03893	19679.2625
2260.93041	19606.2625
2263.82004	19566.3625
2266.70783	19522.2625
2269.59378	19493.9625
2272.4779	19488.2625
2275.36017	19397.4625
2278.24061	19381.7625
2281.11922	19297.3625
2283.996	19328.9625
2286.87094	19313.5625
2289.74405	19289.7625
2292.61534	19293.4625
2295.4848	19273.2625
2298.35243	19258.1625
2301.21824	19239.0625
2304.08223	19245.0625
2306.94439	19275.9625
2309.80474	19287.5625
2312.66327	19297.5625
2315.51999	19263.7625
2318.37489	19289.9625
2321.22797	19300.1625
2324.07925	19264.2625
2326.92871	19280.0625
2329.77637	19266.3625
2332.62222	19251.7625
2335.46626	19216.8625
2338.3085	19245.6625
2341.14893	19256.6625
2343.98756	19283.1625
2346.8244	19312.5625
2349.65943	19307.6625
2352.49267	19314.0625
2355.32411	19320.2625
2358.15376	19263.0625
2360.98161	19252.5625
2363.80768	19220.9625
2366.63195	19229.7625
2369.45444	19218.3625
2372.27514	19171.1625
2375.09405	19142.1625
2377.91118	19110.2625
2380.72652	19019.5625
2383.54009	19013.4625
2386.35187	18988.9625
2389.16188	18928.1625
2391.97011	18861.0625
2394.77657	18853.1625
2397.58125	18872.5625
2400.38416	18824.4625
2403.18529	18812.0625
2405.98466	18771.9625
2408.78226	18742.7625
2411.57809	18665.9625
2414.37216	18625.8625
2417.16446	18617.7625
2419.955	18600.0625
2422.74378	18590.1625
2425.5308	18605.4625
2428.31606	18574.1625
2431.09956	18566.6625
2433.88131	18592.0625
2436.6613	18577.5625
2439.43954	18608.7625
2442.21603	18576.7625
2444.99077	18579.8625
2447.76377	18567.5625
2450.53501	18582.9625
2453.30451	18603.8625
2456.07226	18571.9625
2458.83827	18562.7625
2461.60254	18541.2625
2464.36507	18550.5625
2467.12586	18549.6625
2469.88492	18543.2625
2472.64224	18544.4625
2475.39782	18556.3625
2478.15167	18569.0625
2480.90379	18606.3625
2483.65417	18662.4625
2486.40283	18668.9625
2489.14976	18708.3625
2491.89497	18677.1625
2494.63845	18732.5625
2497.3802	18696.6625
2500.12024	18731.9625
2502.85855	18682.5625
2505.59514	18670.3625
2508.33002	18653.1625
2511.06318	18635.4625
2513.79462	18601.6625
2516.52435	18586.2625
2519.25237	18523.1625
2521.97867	18501.1625
2524.70327	18495.4625
2527.42616	18488.5625
2530.14734	18500.9625
2532.86681	18471.3625
2535.58458	18478.0625
2538.30065	18488.4625
2541.01501	18503.2625
2543.72768	18484.7625
2546.43864	18474.3625
2549.14791	18464.9625
2551.85548	18450.0625
2554.56136	18411.2625
2557.26554	18391.3625
2559.96803	18396.8625
2562.66883	18388.1625
2565.36794	18348.7625
2568.06536	18351.2625
2570.7611	18301.0625
2573.45514	18287.4625
2576.14751	18303.8625
2578.83819	18279.0625
2581.52719	18303.9625
2584.21451	18273.0625
2586.90015	18283.6625
2589.58411	18280.8625
2592.2664	18257.4625
2594.94701	18231.3625
2597.62594	18263.6625
2600.30321	18263.9625
2602.9788	18239.9625
2605.65273	18222.1625
2608.32498	18258.8625
2610.99557	18250.7625
2613.66449	18243.1625
2616.33175	18280.7625
2618.99734	18276.7625
2621.66128	18275.0625
2624.32355	18260.6625
2626.98416	18272.3625
2629.64311	18300.4625
2632.30041	18290.1625
2634.95605	18270.3625
2637.61004	18212.5625
2640.26238	18188.8625
2642.91306	18228.2625
2645.56209	18191.2625
2648.20948	18153.4625
2650.85521	18105.1625
2653.4993	18099.1625
2656.14175	18163.6625
2658.78255	18210.4625
2661.42171	18214.0625
2664.05923	18250.2625
2666.6951	18223.1625
2669.32934	18268.5625
2671.96194	18211.4625
2674.59291	18261.8625
2677.22224	18292.6625
2679.84993	18278.3625
2682.476	18284.3625
2685.10043	18280.9625
2687.72324	18267.3625
2690.34441	18283.3625
2692.96396	18267.5625
2695.58188	18279.5625
2698.19818	18222.4625
2700.81285	18204.8625
2703.4259	18182.1625
2706.03733	18104.2625
2708.64714	18169.7625
2711.25533	18197.1625
2713.86191	18197.4625
2716.46687	18289.5625
2719.07021	18283.6625
2721.67194	18299.9625
2724.27206	18298.9625
2726.87057	18342.5625
2729.46747	18312.0625
2732.06276	18355.8625
2734.65644	18373.4625
2737.24852	18373.4625
2739.83899	18337.9625
2742.42786	18352.5625
2745.01513	18309.5625
2747.60079	18324.2625
2750.18486	18302.6625
2752.76733	18296.0625
2755.3482	18290.8625
2757.92747	18323.3625
2760.50515	18307.4625
2763.08123	18271.0625
2765.65573	18239.6625
2768.22863	18233.6625
2770.79994	18191.4625
2773.36967	18209.3625
2775.9378	18210.8625
2778.50435	18189.4625
2781.06932	18187.8625
2783.6327	18188.1625
2786.1945	18213.9625
2788.75471	18227.4625
2791.31335	18153.6625
2793.87041	18165.4625
2796.42589	18127.5625
2798.97979	18080.7625
2801.53212	18025.8625
2804.08288	18037.4625
2806.63206	18013.9625
2809.17967	18001.6625
2811.72571	17975.4625
2814.27018	17985.6625
2816.81308	17928.3625
2819.35442	17981.7625
2821.89419	17951.6625
2824.43239	17945.8625
2826.96904	17914.1625
2829.50412	17928.5625
2832.03763	17886.4625
2834.56959	17918.1625
2837.1	17878.9625
2839.62884	17870.9625
2842.15613	17807.4625
2844.68186	17811.3625
2847.20604	17806.6625
2849.72867	17774.5625
2852.24974	17771.6625
2854.76927	17792.3625
2857.28724	17768.4625
2859.80367	17734.5625
2862.31855	17715.2625
2864.83189	17699.8625
2867.34368	17730.4625
2869.85393	17750.8625
2872.36264	17750.8625
2874.8698	17763.8625
2877.37543	17766.7625
2879.87952	17792.1625
2882.38207	17717.2625
2884.88308	17708.2625
2887.38256	17750.6625
2889.88051	17730.7625
2892.37692	17757.1625
2894.8718	17740.5625
2897.36515	17750.3625
2899.85698	17778.2625
2902.34727	17833.7625
2904.83604	17809.8625
2907.32328	17856.1625
2909.809	17872.3625
2912.29319	17889.8625
2914.77587	17863.6625
2917.25702	17873.5625
2919.73665	17805.1625
2922.21476	17819.6625
2924.69136	17781.4625
2927.16644	17788.6625
2929.64	17756.6625
2932.11205	17742.4625
2934.58258	17673.0625
2937.05161	17708.3625
2939.51912	17677.1625
2941.98513	17670.6625
2944.44962	17671.6625
2946.91261	17617.7625
2949.37409	17658.1625
2951.83407	17677.1625
2954.29254	17635.9625
2956.74951	17640.8625
2959.20498	17619.8625
2961.65895	17601.1625
2964.11142	17637.8625
2966.56239	17611.4625
2969.01186	17593.9625
2971.45984	17541.8625
2973.90632	17526.0625
2976.35131	17458.4625
2978.7948	17429.2625
2981.23681	17438.8625
2983.67732	17387.2625
2986.11635	17345.0625
2988.55388	17298.1625
2990.98993	17273.5625
2993.4245	17263.4625
2995.85758	17219.9625
2998.28917	17217.2625
3000.71928	17180.4625
3003.14791	17134.6625
3005.57506	17144.5625
3008.00073	17052.6625
3010.42493	17013.5625
3012.84764	17002.1625
3015.26888	17001.8625
3017.68865	16956.1625
3020.10694	16913.3625
3022.52376	16875.2625
3024.9391	16875.8625
3027.35298	16823.9625
3029.76539	16852.7625
3032.17632	16808.8625
3034.5858	16783.5625
3036.9938	16765.8625
3039.40034	16769.2625
3041.80542	16762.3625
3044.20903	16747.9625
3046.61118	16732.9625
3049.01187	16675.7625
3051.4111	16698.1625
3053.80888	16634.8625
3056.20519	16635.6625
3058.60005	16582.1625
3060.99345	16580.0625
3063.3854	16516.4625
3065.7759	16458.6625
3068.16494	16390.2625
3070.55254	16328.6625
3072.93868	16294.5625
3075.32338	16248.6625
3077.70662	16266.4625
3080.08842	16192.9625
3082.46878	16198.7625
3084.84769	16136.2625
3087.22515	16153.9625
3089.60118	16117.2625
3091.97576	16112.1625
3094.3489	16128.5625
3096.72061	16139.5625
3099.09087	16151.3625
3101.4597	16106.9625
3103.82709	16100.6625
3106.19305	16097.2625
3108.55757	16050.6625
3110.92066	15980.4625
3113.28232	15979.0625
3115.64255	15931.0625
3118.00134	15905.8625
3120.35871	15895.9625
3122.71466	15850.4625
3125.06917	15831.0625
3127.42226	15833.3625
3129.77393	15813.7625
3132.12417	15725.8625
3134.47299	15761.3625
3136.82039	15745.2625
3139.16636	15698.0625
3141.51092	15740.3625
3143.85406	15738.1625
3146.19579	15744.8625
3148.53609	15722.4625
3150.87499	15725.7625
3153.21246	15696.4625
3155.54853	15756.7625
3157.88318	15743.5625
3160.21642	15738.7625
3162.54826	15727.6625
3164.87868	15737.3625
3167.2077	15746.1625
3169.5353	15731.4625
3171.86151	15728.1625
3174.18631	15700.7625
3176.5097	15659.4625
3178.83169	15648.2625
3181.15228	15620.9625
3183.47147	15604.2625
3185.78926	15604.1625
3188.10565	15622.9625
3190.42065	15585.1625
3192.73424	15608.8625
3195.04645	15588.8625
3197.35725	15572.9625
3199.66667	15592.9625
3201.97469	15626.1625
3204.28132	15569.7625
3206.58656	15604.5625
3208.8904	15609.9625
3211.19287	15594.4625
3213.49394	15593.3625
3215.79363	15589.0625
3218.09193	15647.5625
3220.38884	15627.3625
3222.68438	15642.3625
3224.97853	15637.8625
3227.2713	15623.5625
3229.56269	15638.8625
3231.8527	15608.1625
3234.14133	15579.4625
3236.42858	15525.5625
3238.71446	15535.2625
3240.99896	15491.7625
3243.28209	15466.6625
3245.56384	15487.0625
3247.84423	15467.6625
3250.12324	15416.8625
3252.40088	15413.8625
3254.67715	15382.9625
3256.95205	15410.3625
3259.22558	15429.7625
3261.49775	15447.0625
3263.76855	15429.7625
3266.03799	15424.6625
3268.30606	15374.7625
3270.57277	15342.6625
3272.83812	15295.4625
3275.10211	15298.7625
3277.36474	15303.6625
3279.62601	15283.7625
3281.88593	15228.3625
3284.14448	15273.8625
3286.40168	15234.4625
3288.65753	15267.7625
3290.91202	15248.7625
3293.16516	15176.7625
3295.41695	15184.4625
3297.66738	15086.1625
3299.91647	15027.3625
3302.16421	14931.5625
3304.4106	14888.8625
3306.65564	14807.7625
3308.89933	14655.7625
3311.14169	14568.5625
3313.38269	14469.3625
3315.62236	14360.0625
3317.86068	14220.3625
3320.09766	14117.9625
3322.3333	14082.1625
3324.5676	14016.7625
3326.80056	13786.8625
3329.03219	13727.1625
3331.26248	3.4625
3333.49143	-0.8375
3335.71905	1.1625
