Data from AgNPs_FTO_APTES_UA_50uM_CRN_50uM_R6G_10uM_NaF_0.1M_Addition_RamanShift__25__15-01-54-994.txt Node

Date: Mon Feb 21 15:01:54 GMT 2022
User: TCL
Spectrometer: QEP01345
Trigger mode: 4
Integration Time (sec): 7.000000E0
Scans to average: 10
Electric dark correction enabled: true
Nonlinearity correction enabled: false
Boxcar width: 0
XAxis mode: Raman Shifts
Number of Pixels in Spectrum: 1044
>>>>>Begin Spectral Data<<<<<
46.04893	1.225
50.45542	0.025
54.85868	-1.275
59.25871	-2.075
63.6555	59.725
68.04907	65.825
72.43941	66.525
76.82654	71.325
81.21044	74.225
85.59113	79.625
89.96862	77.725
94.34289	83.325
98.71396	85.325
103.08183	91.425
107.4465	89.125
111.80798	92.225
116.16626	94.325
120.52136	91.325
124.87327	103.625
129.222	99.125
133.56755	102.725
137.90993	112.925
142.24913	120.325
146.58517	132.125
150.91804	152.925
155.24774	174.225
159.57429	214.225
163.89768	276.925
168.21792	367.225
172.53501	493.725
176.84895	687.125
181.15975	963.925
185.46741	1341.125
189.77193	1854.125
194.07331	2468.425
198.37157	3198.225
202.6667	3954.725
206.9587	4724.525
211.24758	5489.725
215.53334	6297.625
219.81599	7206.225
224.09553	8173.225
228.37195	9316.525
232.64527	10548.325
236.91549	11767.825
241.18261	12916.525
245.44663	13853.525
249.70755	14659.225
253.96539	15311.725
258.22014	15924.925
262.4718	16385.425
266.72039	16667.025
270.96589	16760.825
275.20832	16616.625
279.44768	16351.825
283.68397	16046.625
287.91719	15827.825
292.14735	15814.325
296.37445	16164.125
300.59849	16765.025
304.81948	17478.125
309.03742	17983.325
313.25231	17895.225
317.46415	17058.925
321.67296	15787.825
325.87872	14741.425
330.08145	14318.325
334.28114	14323.525
338.47781	14577.525
342.67145	15036.225
346.86207	15656.325
351.04966	16610.525
355.23424	17657.725
359.4158	18475.825
363.59435	18879.125
367.76989	19020.125
371.94243	18995.025
376.11196	18923.325
380.27849	18806.025
384.44203	18652.225
388.60257	18434.225
392.76012	18254.425
396.91468	18370.425
401.06626	18762.225
405.21485	19074.225
409.36047	18731.225
413.50311	17740.025
417.64277	16803.025
421.77947	16231.425
425.9132	16005.725
430.04396	15934.725
434.17176	16032.725
438.2966	16239.825
442.41849	16667.825
446.53742	17165.625
450.6534	17649.925
454.76644	17984.825
458.87653	18102.325
462.98368	17948.825
467.08789	17642.225
471.18916	17266.225
475.2875	16854.025
479.38291	16502.625
483.4754	16243.225
487.56496	16030.725
491.6516	15866.525
495.73531	15798.125
499.81612	15845.525
503.89401	16058.525
507.96899	16271.325
512.04106	16514.225
516.11023	16813.125
520.1765	17046.925
524.23987	16978.525
528.30034	16742.925
532.35792	16487.925
536.41261	16193.025
540.46441	15876.725
544.51333	15664.525
548.55936	15726.325
552.60252	16039.825
556.64279	16418.125
560.6802	16604.925
564.71473	16803.825
568.7464	17408.825
572.7752	17731.525
576.80114	17234.525
580.82422	16662.525
584.84444	16477.125
588.86181	16541.825
592.87633	16767.225
596.888	17026.225
600.89682	17628.425
604.9028	19677.325
608.90594	25251.325
612.90624	32295.425
616.90371	30639.925
620.89834	21566.325
624.89015	17428.925
628.87913	16744.025
632.86528	16878.125
636.84862	17065.525
640.82913	16781.825
644.80683	15943.825
648.78172	15381.825
652.75379	15389.025
656.72306	15960.725
660.68952	16756.125
664.65319	16562.025
668.61405	15796.425
672.57211	15506.825
676.52738	15507.725
680.47986	15491.925
684.42955	15344.825
688.37646	15169.425
692.32058	15195.725
696.26192	15300.425
700.20048	15493.525
704.13626	15617.625
708.06928	15543.725
711.99952	15371.625
715.927	15349.725
719.85171	15419.325
723.77365	15496.525
727.69284	15417.425
731.60928	15289.625
735.52295	15293.725
739.43388	15388.125
743.34206	15472.125
747.24749	15501.725
751.15017	15583.525
755.05012	15819.725
758.94733	16549.225
762.8418	18352.725
766.73354	21431.225
770.62254	24657.725
774.50882	26367.025
778.39237	25298.925
782.27321	21781.125
786.15132	18479.625
790.02671	16609.625
793.89938	15766.725
797.76935	15450.425
801.6366	15291.325
805.50115	15201.925
809.36299	15154.325
813.22213	15071.825
817.07857	15052.625
820.93231	15027.025
824.78336	15013.525
828.63172	15067.825
832.47738	15133.625
836.32036	15112.025
840.16066	15105.225
843.99827	15108.925
847.8332	15045.025
851.66546	14987.325
855.49504	14974.125
859.32195	14977.025
863.1462	14944.825
866.96777	14894.125
870.78668	14883.525
874.60293	14886.425
878.41652	14972.125
882.22745	15062.625
886.03573	15145.925
889.84136	15114.125
893.64433	14997.025
897.44466	14941.925
901.24235	14933.725
905.0374	14866.925
908.8298	14732.825
912.61957	14680.025
916.40671	14755.825
920.19121	14868.025
923.97308	15090.025
927.75233	15332.425
931.52895	15532.325
935.30295	15440.425
939.07433	14983.225
942.84309	14611.525
946.60924	14377.125
950.37278	14262.425
954.13371	14181.825
957.89203	14093.425
961.64774	14041.925
965.40086	13971.425
969.15137	13913.225
972.89929	13874.625
976.64461	13836.925
980.38733	13853.325
984.12747	13930.325
987.86502	14048.225
991.59999	14216.525
995.33237	14510.625
999.06217	14926.225
1002.78939	15517.425
1006.51404	15868.725
1010.23611	16117.225
1013.95561	16323.925
1017.67255	16345.725
1021.38692	16161.025
1025.09872	15995.425
1028.80796	16097.625
1032.51465	16508.925
1036.21877	16969.825
1039.92035	17044.025
1043.61937	16901.725
1047.31584	16495.025
1051.00976	16088.825
1054.70114	15758.925
1058.38998	15630.525
1062.07627	15616.525
1065.76003	15636.925
1069.44126	15645.325
1073.11995	15767.825
1076.79611	15922.725
1080.46974	16229.325
1084.14085	16725.925
1087.80943	17186.625
1091.47549	17292.125
1095.13903	17016.725
1098.80005	16449.425
1102.45857	16039.725
1106.11456	15957.925
1109.76805	16178.225
1113.41903	16633.325
1117.06751	17303.025
1120.71348	18112.825
1124.35696	18960.725
1127.99793	19543.425
1131.63641	19314.525
1135.2724	18341.325
1138.90589	17528.325
1142.5369	16955.225
1146.16542	16525.625
1149.79145	16252.525
1153.415	16192.925
1157.03607	16369.325
1160.65467	16701.325
1164.27079	17293.525
1167.88443	18245.125
1171.49561	19737.725
1175.10432	21992.925
1178.71056	25160.125
1182.31434	27894.825
1185.91565	28800.225
1189.51451	27951.325
1193.11091	25984.025
1196.70485	23807.625
1200.29634	22298.925
1203.88538	21208.625
1207.47197	19958.125
1211.05612	18909.825
1214.63782	18283.325
1218.21708	18110.125
1221.79391	18156.925
1225.36829	18275.425
1228.94024	18198.125
1232.50976	18032.525
1236.07685	17883.925
1239.6415	17864.525
1243.20374	17942.125
1246.76355	18120.625
1250.32093	18400.325
1253.8759	18833.025
1257.42845	19503.625
1260.97859	20136.025
1264.52631	20750.325
1268.07163	21407.125
1271.61453	22098.725
1275.15503	22706.225
1278.69312	23135.125
1282.22882	23492.425
1285.76211	24029.525
1289.29301	24660.025
1292.82151	25393.225
1296.34761	26352.825
1299.87133	27968.625
1303.39266	30599.125
1306.9116	34535.925
1310.42815	38470.325
1313.94233	39979.525
1317.45412	38181.325
1320.96354	34937.525
1324.47058	31739.925
1327.97525	29186.125
1331.47754	27695.425
1334.97747	27284.025
1338.47502	27636.525
1341.97022	28631.025
1345.46305	30038.625
1348.95352	31789.025
1352.44163	33996.725
1355.92738	37657.625
1359.41078	43407.725
1362.89183	48156.525
1366.37053	45649.625
1369.84688	37795.125
1373.32088	30922.525
1376.79254	26747.425
1380.26186	24569.325
1383.72883	23376.425
1387.19347	22471.725
1390.65578	21649.425
1394.11575	21114.225
1397.57339	21001.525
1401.0287	21196.725
1404.48168	21488.625
1407.93234	21811.225
1411.38068	22135.625
1414.82669	22230.125
1418.27039	22053.325
1421.71177	21569.525
1425.15083	21062.525
1428.58758	20835.725
1432.02203	20987.425
1435.45416	21183.325
1438.88399	21243.225
1442.31151	21296.525
1445.73673	21423.125
1449.15965	21635.425
1452.58027	21655.925
1455.9986	21510.325
1459.41463	21516.825
1462.82837	21770.425
1466.23982	22305.425
1469.64898	22886.225
1473.05586	23209.725
1476.46045	23401.925
1479.86276	23686.925
1483.26279	24065.125
1486.66054	24590.225
1490.05602	25419.625
1493.44922	26563.925
1496.84016	28350.425
1500.22882	31206.825
1503.61521	35390.125
1506.99934	40277.025
1510.38121	44137.425
1513.76081	44504.125
1517.13816	40876.325
1520.51324	35162.625
1523.88607	30195.925
1527.25665	27093.025
1530.62498	25311.825
1533.99105	24300.425
1537.35488	23641.625
1540.71647	23349.725
1544.07581	23269.225
1547.4329	23274.625
1550.78776	23361.725
1554.14038	23454.125
1557.49077	23696.225
1560.83892	24129.325
1564.18484	24757.625
1567.52853	25371.425
1570.86999	25884.925
1574.20922	26157.225
1577.54624	25879.925
1580.88103	24587.525
1584.2136	23047.325
1587.54395	22396.525
1590.87208	22882.825
1594.19801	24384.925
1597.52172	26282.025
1600.84321	27101.425
1604.16251	26247.025
1607.47959	24458.925
1610.79447	22491.725
1614.10715	20641.125
1617.41763	19244.925
1620.7259	18349.025
1624.03199	17959.725
1627.33587	18084.825
1630.63757	18635.425
1633.93707	19715.525
1637.23439	21295.025
1640.52951	23492.425
1643.82246	26512.125
1647.11321	29860.225
1650.40179	31835.325
1653.68819	30314.725
1656.97241	25931.725
1660.25446	21555.125
1663.53433	18609.625
1666.81203	16848.725
1670.08756	15893.125
1673.36092	15310.625
1676.63211	14893.525
1679.90115	14641.825
1683.16801	14423.925
1686.43272	14244.325
1689.69527	14120.725
1692.95567	13977.925
1696.2139	13856.025
1699.46999	13725.325
1702.72392	13671.025
1705.97571	13687.625
1709.22535	13798.025
1712.47284	13834.825
1715.71819	13872.825
1718.96139	13852.525
1722.20246	13835.225
1725.44139	13762.825
1728.67818	13690.525
1731.91284	13623.525
1735.14537	13484.725
1738.37576	13486.825
1741.60403	13412.225
1744.83017	13357.625
1748.05418	13304.125
1751.27607	13292.725
1754.49584	13217.525
1757.71349	13132.625
1760.92903	13068.225
1764.14244	13059.725
1767.35375	13051.125
1770.56294	12996.925
1773.77002	12955.925
1776.97499	12992.725
1780.17785	13001.625
1783.37861	13055.625
1786.57727	13030.825
1789.77382	13029.025
1792.96828	13011.925
1796.16064	13038.725
1799.3509	12982.825
1802.53907	12978.825
1805.72514	12955.125
1808.90913	12902.525
1812.09102	12886.225
1815.27083	12877.925
1818.44856	12858.525
1821.6242	12828.925
1824.79776	12798.125
1827.96924	12816.025
1831.13864	12800.225
1834.30597	12765.025
1837.47122	12764.225
1840.6344	12766.925
1843.7955	12735.025
1846.95454	12754.625
1850.11151	12739.125
1853.26642	12706.625
1856.41926	12748.625
1859.57004	12727.825
1862.71876	12712.925
1865.86542	12726.225
1869.01003	12763.425
1872.15258	12750.325
1875.29308	12769.525
1878.43152	12772.925
1881.56792	12761.825
1884.70227	12765.625
1887.83457	12760.125
1890.96482	12741.225
1894.09304	12725.525
1897.21921	12717.325
1900.34335	12732.125
1903.46544	12729.425
1906.58551	12743.825
1909.70353	12754.925
1912.81953	12720.025
1915.93349	12734.625
1919.04543	12706.025
1922.15534	12690.025
1925.26322	12664.125
1928.36908	12614.125
1931.47292	12577.225
1934.57473	12571.425
1937.67453	12518.225
1940.77232	12482.725
1943.86808	12416.825
1946.96184	12405.225
1950.05358	12357.525
1953.14331	12314.625
1956.23103	12285.125
1959.31675	12269.325
1962.40046	12248.925
1965.48217	12203.425
1968.56188	12181.825
1971.63959	12161.925
1974.7153	12127.325
1977.78901	12092.425
1980.86073	12061.825
1983.93046	11982.925
1986.99819	11931.425
1990.06394	11910.625
1993.1277	11902.025
1996.18947	11842.025
1999.24925	11809.525
2002.30706	11762.925
2005.36288	11737.825
2008.41672	11694.525
2011.46859	11645.725
2014.51848	11634.725
2017.56639	11587.025
2020.61233	11561.925
2023.6563	11566.125
2026.6983	11516.525
2029.73833	11504.525
2032.7764	11486.625
2035.8125	11483.425
2038.84664	11488.525
2041.87881	11454.725
2044.90903	11445.525
2047.93729	11405.925
2050.96359	11425.225
2053.98794	11380.225
2057.01034	11361.825
2060.03078	11381.225
2063.04927	11365.825
2066.06582	11337.425
2069.08042	11310.025
2072.09307	11299.925
2075.10378	11282.125
2078.11255	11286.525
2081.11938	11297.825
2084.12426	11268.825
2087.12722	11306.025
2090.12824	11271.125
2093.12732	11279.625
2096.12447	11288.725
2099.11969	11281.125
2102.11299	11292.625
2105.10435	11290.225
2108.09379	11247.425
2111.08131	11303.425
2114.0669	11275.425
2117.05057	11298.925
2120.03233	11329.825
2123.01216	11379.025
2125.99008	11393.725
2128.96609	11356.825
2131.94018	11379.225
2134.91236	11376.725
2137.88263	11387.125
2140.851	11405.925
2143.81746	11397.425
2146.78201	11390.725
2149.74466	11403.725
2152.7054	11399.725
2155.66425	11398.825
2158.6212	11391.425
2161.57625	11364.525
2164.52941	11381.825
2167.48067	11338.425
2170.43004	11353.525
2173.37752	11370.625
2176.32311	11359.325
2179.26681	11381.625
2182.20863	11387.025
2185.14856	11391.925
2188.08661	11393.725
2191.02278	11410.425
2193.95707	11389.425
2196.88948	11371.425
2199.82001	11374.425
2202.74867	11369.725
2205.67545	11401.425
2208.60037	11369.725
2211.52341	11350.125
2214.44458	11363.925
2217.36388	11316.225
2220.28132	11321.625
2223.1969	11295.725
2226.11061	11288.025
2229.02246	11275.525
2231.93245	11245.825
2234.84058	11218.925
2237.74686	11203.325
2240.65128	11176.825
2243.55385	11201.625
2246.45456	11188.825
2249.35343	11156.225
2252.25044	11165.725
2255.14561	11141.025
2258.03893	11160.525
2260.93041	11128.725
2263.82004	11106.025
2266.70783	11095.225
2269.59378	11063.825
2272.4779	11064.525
2275.36017	11016.325
2278.24061	10993.925
2281.11922	10986.925
2283.996	10956.825
2286.87094	10939.725
2289.74405	10927.525
2292.61534	10911.425
2295.4848	10894.025
2298.35243	10887.025
2301.21824	10919.625
2304.08223	10933.225
2306.94439	10905.225
2309.80474	10890.025
2312.66327	10948.725
2315.51999	10934.025
2318.37489	10923.225
2321.22797	10927.325
2324.07925	10922.525
2326.92871	10901.625
2329.77637	10903.225
2332.62222	10897.325
2335.46626	10880.825
2338.3085	10873.325
2341.14893	10901.025
2343.98756	10923.925
2346.8244	10922.925
2349.65943	10943.125
2352.49267	10944.125
2355.32411	10942.725
2358.15376	10942.225
2360.98161	10969.325
2363.80768	10937.425
2366.63195	10952.725
2369.45444	10917.525
2372.27514	10917.325
2375.09405	10899.225
2377.91118	10856.625
2380.72652	10824.825
2383.54009	10794.825
2386.35187	10748.225
2389.16188	10716.325
2391.97011	10704.425
2394.77657	10652.725
2397.58125	10631.225
2400.38416	10643.725
2403.18529	10629.525
2405.98466	10602.325
2408.78226	10557.725
2411.57809	10521.025
2414.37216	10515.925
2417.16446	10529.325
2419.955	10487.325
2422.74378	10491.625
2425.5308	10494.225
2428.31606	10514.325
2431.09956	10503.325
2433.88131	10489.125
2436.6613	10503.625
2439.43954	10500.325
2442.21603	10507.825
2444.99077	10483.925
2447.76377	10508.225
2450.53501	10513.925
2453.30451	10492.425
2456.07226	10491.525
2458.83827	10488.525
2461.60254	10483.425
2464.36507	10484.225
2467.12586	10499.525
2469.88492	10495.525
2472.64224	10496.125
2475.39782	10493.925
2478.15167	10508.025
2480.90379	10550.125
2483.65417	10576.725
2486.40283	10566.425
2489.14976	10605.025
2491.89497	10606.025
2494.63845	10599.025
2497.3802	10581.125
2500.12024	10585.025
2502.85855	10583.625
2505.59514	10550.825
2508.33002	10509.325
2511.06318	10478.425
2513.79462	10474.025
2516.52435	10411.425
2519.25237	10416.325
2521.97867	10380.925
2524.70327	10380.125
2527.42616	10377.125
2530.14734	10364.825
2532.86681	10365.125
2535.58458	10359.025
2538.30065	10351.825
2541.01501	10352.225
2543.72768	10364.525
2546.43864	10337.025
2549.14791	10329.425
2551.85548	10338.125
2554.56136	10326.425
2557.26554	10302.025
2559.96803	10295.025
2562.66883	10320.225
2565.36794	10300.625
2568.06536	10271.325
2570.7611	10266.525
2573.45514	10264.425
2576.14751	10291.825
2578.83819	10236.625
2581.52719	10216.925
2584.21451	10241.625
2586.90015	10212.525
2589.58411	10217.325
2592.2664	10196.525
2594.94701	10201.525
2597.62594	10192.825
2600.30321	10196.325
2602.9788	10215.825
2605.65273	10201.225
2608.32498	10213.525
2610.99557	10215.625
2613.66449	10207.725
2616.33175	10219.025
2618.99734	10227.025
2621.66128	10213.625
2624.32355	10226.425
2626.98416	10210.125
2629.64311	10207.225
2632.30041	10192.625
2634.95605	10181.825
2637.61004	10148.525
2640.26238	10147.225
2642.91306	10136.325
2645.56209	10108.825
2648.20948	10095.925
2650.85521	10074.225
2653.4993	10058.825
2656.14175	10045.525
2658.78255	10086.725
2661.42171	10079.125
2664.05923	10102.025
2666.6951	10128.525
2669.32934	10175.625
2671.96194	10156.925
2674.59291	10155.925
2677.22224	10154.025
2679.84993	10168.925
2682.476	10152.125
2685.10043	10139.425
2687.72324	10121.725
2690.34441	10125.225
2692.96396	10122.825
2695.58188	10116.925
2698.19818	10100.625
2700.81285	10081.425
2703.4259	10058.025
2706.03733	10019.925
2708.64714	10074.825
2711.25533	10089.025
2713.86191	10101.125
2716.46687	10109.725
2719.07021	10121.925
2721.67194	10141.125
2724.27206	10114.625
2726.87057	10148.625
2729.46747	10137.125
2732.06276	10140.725
2734.65644	10125.725
2737.24852	10139.425
2739.83899	10103.925
2742.42786	10113.825
2745.01513	10089.225
2747.60079	10103.425
2750.18486	10072.325
2752.76733	10078.625
2755.3482	10073.425
2757.92747	10044.225
2760.50515	10052.325
2763.08123	10052.225
2765.65573	10025.625
2768.22863	10009.625
2770.79994	10031.425
2773.36967	10045.025
2775.9378	10013.125
2778.50435	10027.325
2781.06932	10013.925
2783.6327	10035.725
2786.1945	10031.325
2788.75471	10035.825
2791.31335	9979.625
2793.87041	10000.825
2796.42589	9962.025
2798.97979	9986.425
2801.53212	9956.825
2804.08288	9961.925
2806.63206	9928.625
2809.17967	9907.225
2811.72571	9911.725
2814.27018	9904.625
2816.81308	9931.125
2819.35442	9926.525
2821.89419	9920.425
2824.43239	9925.925
2826.96904	9932.825
2829.50412	9945.325
2832.03763	9928.025
2834.56959	9902.825
2837.1	9908.825
2839.62884	9913.025
2842.15613	9902.025
2844.68186	9933.225
2847.20604	9904.125
2849.72867	9929.325
2852.24974	9935.025
2854.76927	9945.925
2857.28724	9903.425
2859.80367	9909.925
2862.31855	9885.225
2864.83189	9899.625
2867.34368	9897.425
2869.85393	9925.325
2872.36264	9933.525
2874.8698	9910.625
2877.37543	9918.925
2879.87952	9883.025
2882.38207	9900.125
2884.88308	9886.325
2887.38256	9899.125
2889.88051	9873.825
2892.37692	9889.725
2894.8718	9897.925
2897.36515	9891.625
2899.85698	9880.625
2902.34727	9912.325
2904.83604	9926.125
2907.32328	9959.525
2909.809	9948.225
2912.29319	9969.525
2914.77587	9965.425
2917.25702	9941.625
2919.73665	9960.925
2922.21476	9930.225
2924.69136	9911.625
2927.16644	9899.725
2929.64	9895.025
2932.11205	9866.425
2934.58258	9834.525
2937.05161	9877.425
2939.51912	9849.025
2941.98513	9838.825
2944.44962	9806.025
2946.91261	9797.525
2949.37409	9816.525
2951.83407	9798.925
2954.29254	9800.525
2956.74951	9781.225
2959.20498	9791.425
2961.65895	9729.225
2964.11142	9746.325
2966.56239	9688.025
2969.01186	9687.625
2971.45984	9661.325
2973.90632	9650.125
2976.35131	9657.825
2978.7948	9609.425
2981.23681	9600.125
2983.67732	9594.525
2986.11635	9551.825
2988.55388	9564.225
2990.98993	9539.125
2993.4245	9524.425
2995.85758	9491.025
2998.28917	9484.525
3000.71928	9493.025
3003.14791	9439.025
3005.57506	9442.125
3008.00073	9430.025
3010.42493	9434.125
3012.84764	9417.225
3015.26888	9412.025
3017.68865	9393.425
3020.10694	9375.025
3022.52376	9348.125
3024.9391	9339.325
3027.35298	9317.325
3029.76539	9294.825
3032.17632	9310.825
3034.5858	9290.425
3036.9938	9275.125
3039.40034	9256.025
3041.80542	9251.425
3044.20903	9239.825
3046.61118	9263.025
3049.01187	9205.325
3051.4111	9224.025
3053.80888	9172.925
3056.20519	9172.625
3058.60005	9133.525
3060.99345	9122.625
3063.3854	9104.825
3065.7759	9089.325
3068.16494	9090.425
3070.55254	9038.125
3072.93868	9001.325
3075.32338	8975.825
3077.70662	8960.525
3080.08842	8940.125
3082.46878	8936.725
3084.84769	8908.525
3087.22515	8919.525
3089.60118	8910.225
3091.97576	8891.725
3094.3489	8887.225
3096.72061	8888.225
3099.09087	8899.125
3101.4597	8899.225
3103.82709	8893.725
3106.19305	8891.525
3108.55757	8869.225
3110.92066	8866.825
3113.28232	8854.025
3115.64255	8816.925
3118.00134	8804.825
3120.35871	8809.825
3122.71466	8805.825
3125.06917	8801.925
3127.42226	8768.825
3129.77393	8782.625
3132.12417	8773.125
3134.47299	8765.725
3136.82039	8761.925
3139.16636	8745.025
3141.51092	8772.625
3143.85406	8749.425
3146.19579	8751.725
3148.53609	8752.425
3150.87499	8763.225
3153.21246	8775.625
3155.54853	8789.325
3157.88318	8783.625
3160.21642	8796.625
3162.54826	8781.725
3164.87868	8779.225
3167.2077	8757.825
3169.5353	8777.825
3171.86151	8806.425
3174.18631	8775.825
3176.5097	8761.925
3178.83169	8756.825
3181.15228	8754.925
3183.47147	8744.325
3185.78926	8751.425
3188.10565	8752.525
3190.42065	8771.225
3192.73424	8769.425
3195.04645	8760.025
3197.35725	8764.125
3199.66667	8752.425
3201.97469	8755.225
3204.28132	8754.525
3206.58656	8755.125
3208.8904	8774.225
3211.19287	8771.525
3213.49394	8806.025
3215.79363	8807.625
3218.09193	8828.625
3220.38884	8786.925
3222.68438	8762.125
3224.97853	8777.025
3227.2713	8795.625
3229.56269	8771.525
3231.8527	8787.725
3234.14133	8765.425
3236.42858	8756.125
3238.71446	8751.925
3240.99896	8739.425
3243.28209	8733.725
3245.56384	8703.725
3247.84423	8713.325
3250.12324	8716.825
3252.40088	8732.325
3254.67715	8717.325
3256.95205	8724.325
3259.22558	8703.825
3261.49775	8704.225
3263.76855	8703.525
3266.03799	8705.325
3268.30606	8689.925
3270.57277	8704.225
3272.83812	8685.925
3275.10211	8646.925
3277.36474	8619.525
3279.62601	8635.225
3281.88593	8625.925
3284.14448	8636.525
3286.40168	8627.625
3288.65753	8638.425
3290.91202	8639.525
3293.16516	8616.025
3295.41695	8607.225
3297.66738	8558.425
3299.91647	8523.425
3302.16421	8466.325
3304.4106	8441.625
3306.65564	8371.025
3308.89933	8307.425
3311.14169	8254.825
3313.38269	8190.425
3315.62236	8126.025
3317.86068	8068.325
3320.09766	8000.425
3322.3333	7950.325
3324.5676	7919.825
3326.80056	7772.925
3329.03219	7732.225
3331.26248	1.625
3333.49143	-1.575
3335.71905	2.025
