Data from AgNPs_FTO_APTES_UA_50uM_CRN_100uM_R6G_10uM_NaF_0.1M_Addition_RamanShift__0__15-15-55-012.txt Node

Date: Mon Feb 21 15:15:55 GMT 2022
User: TCL
Spectrometer: QEP01345
Trigger mode: 4
Integration Time (sec): 7.000000E0
Scans to average: 10
Electric dark correction enabled: true
Nonlinearity correction enabled: false
Boxcar width: 0
XAxis mode: Raman Shifts
Number of Pixels in Spectrum: 1044
>>>>>Begin Spectral Data<<<<<
46.04893	-0.7375
50.45542	-1.8375
54.85868	-0.6375
59.25871	-2.0375
63.6555	61.6625
68.04907	68.5625
72.43941	71.2625
76.82654	75.5625
81.21044	77.8625
85.59113	82.1625
89.96862	82.3625
94.34289	86.3625
98.71396	84.6625
103.08183	95.3625
107.4465	94.7625
111.80798	98.2625
116.16626	95.2625
120.52136	94.2625
124.87327	105.3625
129.222	103.4625
133.56755	106.6625
137.90993	116.2625
142.24913	122.4625
146.58517	136.6625
150.91804	154.7625
155.24774	181.7625
159.57429	220.6625
163.89768	276.3625
168.21792	366.7625
172.53501	493.0625
176.84895	693.3625
181.15975	961.7625
185.46741	1342.9625
189.77193	1866.1625
194.07331	2480.6625
198.37157	3206.9625
202.6667	3950.2625
206.9587	4713.6625
211.24758	5437.4625
215.53334	6168.5625
219.81599	6955.9625
224.09553	7820.5625
228.37195	8787.3625
232.64527	9853.9625
236.91549	10984.9625
241.18261	12056.5625
245.44663	13080.0625
249.70755	13957.6625
253.96539	14726.6625
258.22014	15346.2625
262.4718	15830.4625
266.72039	16205.3625
270.96589	16403.4625
275.20832	16378.8625
279.44768	16206.9625
283.68397	15952.2625
287.91719	15770.4625
292.14735	15643.1625
296.37445	15627.2625
300.59849	15747.5625
304.81948	15863.8625
309.03742	15953.9625
313.25231	15913.5625
317.46415	15700.5625
321.67296	15411.0625
325.87872	15147.6625
330.08145	15075.5625
334.28114	15097.3625
338.47781	15210.9625
342.67145	15405.0625
346.86207	15680.4625
351.04966	16040.8625
355.23424	16393.7625
359.4158	16685.3625
363.59435	16927.2625
367.76989	17084.9625
371.94243	17199.0625
376.11196	17247.0625
380.27849	17357.8625
384.44203	17458.8625
388.60257	17533.2625
392.76012	17645.6625
396.91468	17796.2625
401.06626	18034.0625
405.21485	18202.5625
409.36047	18098.7625
413.50311	17791.5625
417.64277	17516.9625
421.77947	17423.4625
425.9132	17396.5625
430.04396	17461.1625
434.17176	17563.7625
438.2966	17752.5625
442.41849	18103.0625
446.53742	18543.3625
450.6534	19070.7625
454.76644	19347.4625
458.87653	19387.0625
462.98368	19267.5625
467.08789	19068.5625
471.18916	18762.5625
475.2875	18433.8625
479.38291	18150.6625
483.4754	17940.4625
487.56496	17786.0625
491.6516	17637.8625
495.73531	17623.0625
499.81612	17678.6625
503.89401	17790.4625
507.96899	17875.8625
512.04106	17854.2625
516.11023	17864.7625
520.1765	17858.4625
524.23987	17811.8625
528.30034	17778.9625
532.35792	17730.7625
536.41261	17564.4625
540.46441	17402.9625
544.51333	17279.0625
548.55936	17343.4625
552.60252	17596.7625
556.64279	17919.0625
560.6802	18157.5625
564.71473	18184.3625
568.7464	18276.5625
572.7752	18567.9625
576.80114	18758.1625
580.82422	19015.1625
584.84444	19553.9625
588.86181	20364.0625
592.87633	21312.0625
596.888	21756.7625
600.89682	21328.6625
604.9028	21304.1625
608.90594	22973.4625
612.90624	25047.3625
616.90371	23788.1625
620.89834	20080.5625
624.89015	18396.8625
628.87913	18202.5625
632.86528	18302.5625
636.84862	18356.1625
640.82913	18124.3625
644.80683	17714.7625
648.78172	17453.4625
652.75379	17440.4625
656.72306	17701.5625
660.68952	18042.0625
664.65319	17893.8625
668.61405	17623.7625
672.57211	17596.5625
676.52738	17722.5625
680.47986	17733.6625
684.42955	17578.5625
688.37646	17459.1625
692.32058	17508.7625
696.26192	17708.8625
700.20048	17920.2625
704.13626	18002.9625
708.06928	17949.5625
711.99952	17832.9625
715.927	17818.5625
719.85171	17949.3625
723.77365	17901.0625
727.69284	17739.2625
731.60928	17546.1625
735.52295	17524.1625
739.43388	17566.6625
743.34206	17616.5625
747.24749	17714.4625
751.15017	17791.0625
755.05012	17954.3625
758.94733	18333.8625
762.8418	19140.2625
766.73354	20457.6625
770.62254	21860.2625
774.50882	22407.2625
778.39237	21764.2625
782.27321	20366.7625
786.15132	19157.7625
790.02671	18343.3625
793.89938	17911.7625
797.76935	17733.4625
801.6366	17652.4625
805.50115	17586.7625
809.36299	17500.5625
813.22213	17365.3625
817.07857	17316.9625
820.93231	17263.4625
824.78336	17233.6625
828.63172	17255.6625
832.47738	17269.6625
836.32036	17339.4625
840.16066	17373.4625
843.99827	17398.1625
847.8332	17365.0625
851.66546	17334.2625
855.49504	17312.1625
859.32195	17342.7625
863.1462	17315.3625
866.96777	17312.5625
870.78668	17308.9625
874.60293	17318.7625
878.41652	17388.3625
882.22745	17438.1625
886.03573	17526.6625
889.84136	17516.6625
893.64433	17458.9625
897.44466	17340.9625
901.24235	17303.8625
905.0374	17244.3625
908.8298	17162.0625
912.61957	17197.6625
916.40671	17244.9625
920.19121	17373.6625
923.97308	17588.0625
927.75233	17716.6625
931.52895	17702.7625
935.30295	17546.2625
939.07433	17289.0625
942.84309	17092.7625
946.60924	17001.6625
950.37278	16948.3625
954.13371	16914.1625
957.89203	16855.4625
961.64774	16850.4625
965.40086	16834.8625
969.15137	16800.3625
972.89929	16820.5625
976.64461	16832.5625
980.38733	16853.6625
984.12747	16946.8625
987.86502	17081.1625
991.59999	17227.3625
995.33237	17493.7625
999.06217	17846.1625
1002.78939	18205.1625
1006.51404	18502.1625
1010.23611	18791.2625
1013.95561	18927.4625
1017.67255	18947.9625
1021.38692	18792.0625
1025.09872	18561.0625
1028.80796	18546.2625
1032.51465	18770.1625
1036.21877	19047.1625
1039.92035	19117.8625
1043.61937	19046.5625
1047.31584	18812.5625
1051.00976	18543.8625
1054.70114	18399.0625
1058.38998	18345.2625
1062.07627	18403.1625
1065.76003	18507.4625
1069.44126	18655.3625
1073.11995	18931.8625
1076.79611	19183.3625
1080.46974	19399.1625
1084.14085	19557.1625
1087.80943	19734.3625
1091.47549	19867.5625
1095.13903	19798.2625
1098.80005	19548.7625
1102.45857	19208.7625
1106.11456	19015.0625
1109.76805	18905.5625
1113.41903	18968.0625
1117.06751	19091.3625
1120.71348	19323.6625
1124.35696	19555.8625
1127.99793	19825.9625
1131.63641	19948.0625
1135.2724	19753.3625
1138.90589	19587.3625
1142.5369	19460.5625
1146.16542	19432.3625
1149.79145	19445.6625
1153.415	19447.6625
1157.03607	19534.8625
1160.65467	19818.8625
1164.27079	20436.7625
1167.88443	21253.7625
1171.49561	22229.8625
1175.10432	23610.0625
1178.71056	25408.1625
1182.31434	27125.9625
1185.91565	27914.7625
1189.51451	27715.9625
1193.11091	26908.9625
1196.70485	25934.8625
1200.29634	25035.7625
1203.88538	24259.9625
1207.47197	23610.4625
1211.05612	22999.2625
1214.63782	22462.6625
1218.21708	22174.8625
1221.79391	22028.3625
1225.36829	22018.9625
1228.94024	21951.9625
1232.50976	21700.2625
1236.07685	21379.9625
1239.6415	21170.0625
1243.20374	21133.5625
1246.76355	21283.6625
1250.32093	21535.0625
1253.8759	21852.9625
1257.42845	22330.7625
1260.97859	22881.7625
1264.52631	23465.3625
1268.07163	24114.3625
1271.61453	24750.1625
1275.15503	25243.0625
1278.69312	25770.2625
1282.22882	26162.5625
1285.76211	26816.2625
1289.29301	27543.8625
1292.82151	28457.3625
1296.34761	29596.6625
1299.87133	30987.5625
1303.39266	32613.2625
1306.9116	34441.0625
1310.42815	36105.2625
1313.94233	37000.0625
1317.45412	36504.3625
1320.96354	35179.2625
1324.47058	33664.8625
1327.97525	32363.8625
1331.47754	31526.1625
1334.97747	31137.8625
1338.47502	30911.1625
1341.97022	30858.7625
1345.46305	30958.7625
1348.95352	31411.9625
1352.44163	32320.9625
1355.92738	33940.9625
1359.41078	36121.1625
1362.89183	38037.7625
1366.37053	37519.3625
1369.84688	34268.1625
1373.32088	30385.9625
1376.79254	27729.6625
1380.26186	26513.2625
1383.72883	26120.2625
1387.19347	25734.8625
1390.65578	25276.1625
1394.11575	24991.9625
1397.57339	24944.2625
1401.0287	25030.1625
1404.48168	25142.8625
1407.93234	25151.4625
1411.38068	24989.3625
1414.82669	24693.6625
1418.27039	24265.9625
1421.71177	23831.2625
1425.15083	23407.8625
1428.58758	23221.2625
1432.02203	23395.7625
1435.45416	23763.1625
1438.88399	24153.3625
1442.31151	24373.8625
1445.73673	24419.6625
1449.15965	24464.3625
1452.58027	24422.7625
1455.9986	24300.2625
1459.41463	24314.3625
1462.82837	24597.0625
1466.23982	25116.9625
1469.64898	25614.9625
1473.05586	26040.1625
1476.46045	26275.1625
1479.86276	26417.2625
1483.26279	26415.5625
1486.66054	26532.9625
1490.05602	26798.6625
1493.44922	27291.7625
1496.84016	27865.6625
1500.22882	28670.7625
1503.61521	29774.6625
1506.99934	31011.2625
1510.38121	32036.2625
1513.76081	32091.2625
1517.13816	31004.7625
1520.51324	29430.9625
1523.88607	27960.2625
1527.25665	27139.4625
1530.62498	26790.7625
1533.99105	26474.2625
1537.35488	26089.9625
1540.71647	25666.5625
1544.07581	25235.3625
1547.4329	24801.4625
1550.78776	24479.2625
1554.14038	24319.6625
1557.49077	24194.7625
1560.83892	24215.6625
1564.18484	24335.6625
1567.52853	24595.4625
1570.86999	24824.9625
1574.20922	25144.5625
1577.54624	25277.3625
1580.88103	24990.7625
1584.2136	24692.9625
1587.54395	24962.6625
1590.87208	25807.8625
1594.19801	27190.2625
1597.52172	28646.3625
1600.84321	29294.2625
1604.16251	28515.1625
1607.47959	26792.9625
1610.79447	24867.4625
1614.10715	23115.0625
1617.41763	21740.7625
1620.7259	20833.4625
1624.03199	20442.8625
1627.33587	20477.0625
1630.63757	20904.0625
1633.93707	21801.0625
1637.23439	23374.2625
1640.52951	25766.3625
1643.82246	28714.5625
1647.11321	31279.3625
1650.40179	31895.3625
1653.68819	29967.8625
1656.97241	26463.9625
1660.25446	23097.7625
1663.53433	20762.8625
1666.81203	19327.5625
1670.08756	18461.3625
1673.36092	17980.7625
1676.63211	17635.5625
1679.90115	17382.7625
1683.16801	17216.0625
1686.43272	17070.1625
1689.69527	16941.0625
1692.95567	16792.0625
1696.2139	16624.1625
1699.46999	16475.4625
1702.72392	16418.5625
1705.97571	16483.5625
1709.22535	16537.7625
1712.47284	16599.6625
1715.71819	16647.9625
1718.96139	16613.6625
1722.20246	16596.5625
1725.44139	16559.5625
1728.67818	16472.3625
1731.91284	16391.2625
1735.14537	16310.5625
1738.37576	16260.6625
1741.60403	16234.9625
1744.83017	16171.4625
1748.05418	16137.7625
1751.27607	16066.1625
1754.49584	16025.8625
1757.71349	15950.7625
1760.92903	15910.5625
1764.14244	15884.8625
1767.35375	15917.8625
1770.56294	15846.6625
1773.77002	15836.6625
1776.97499	15861.2625
1780.17785	15901.2625
1783.37861	15905.7625
1786.57727	15917.2625
1789.77382	15910.4625
1792.96828	15894.1625
1796.16064	15871.0625
1799.3509	15832.1625
1802.53907	15831.0625
1805.72514	15780.5625
1808.90913	15750.4625
1812.09102	15747.2625
1815.27083	15708.1625
1818.44856	15721.2625
1821.6242	15682.7625
1824.79776	15681.5625
1827.96924	15672.3625
1831.13864	15643.3625
1834.30597	15628.3625
1837.47122	15650.6625
1840.6344	15625.2625
1843.7955	15626.4625
1846.95454	15654.5625
1850.11151	15616.4625
1853.26642	15605.3625
1856.41926	15589.4625
1859.57004	15585.8625
1862.71876	15551.1625
1865.86542	15551.8625
1869.01003	15575.3625
1872.15258	15534.9625
1875.29308	15542.6625
1878.43152	15540.1625
1881.56792	15516.9625
1884.70227	15502.2625
1887.83457	15477.4625
1890.96482	15477.0625
1894.09304	15455.7625
1897.21921	15462.7625
1900.34335	15458.5625
1903.46544	15418.3625
1906.58551	15421.5625
1909.70353	15395.7625
1912.81953	15394.3625
1915.93349	15370.9625
1919.04543	15385.7625
1922.15534	15349.3625
1925.26322	15322.2625
1928.36908	15300.1625
1931.47292	15230.8625
1934.57473	15209.4625
1937.67453	15203.1625
1940.77232	15164.6625
1943.86808	15142.3625
1946.96184	15119.4625
1950.05358	15067.7625
1953.14331	15063.6625
1956.23103	15015.8625
1959.31675	14955.8625
1962.40046	14931.7625
1965.48217	14929.0625
1968.56188	14890.1625
1971.63959	14827.4625
1974.7153	14759.3625
1977.78901	14762.7625
1980.86073	14705.0625
1983.93046	14636.5625
1986.99819	14586.8625
1990.06394	14607.7625
1993.1277	14563.8625
1996.18947	14514.8625
1999.24925	14493.1625
2002.30706	14416.6625
2005.36288	14403.5625
2008.41672	14379.2625
2011.46859	14318.9625
2014.51848	14270.6625
2017.56639	14253.2625
2020.61233	14226.9625
2023.6563	14211.1625
2026.6983	14168.7625
2029.73833	14157.7625
2032.7764	14102.5625
2035.8125	14095.1625
2038.84664	14095.3625
2041.87881	14085.6625
2044.90903	14058.7625
2047.93729	14036.6625
2050.96359	14027.1625
2053.98794	14020.2625
2057.01034	14031.2625
2060.03078	14029.4625
2063.04927	13998.8625
2066.06582	13995.3625
2069.08042	13957.3625
2072.09307	13969.4625
2075.10378	13954.8625
2078.11255	13964.3625
2081.11938	13958.5625
2084.12426	13925.0625
2087.12722	13954.6625
2090.12824	13968.5625
2093.12732	13943.3625
2096.12447	13956.5625
2099.11969	13954.4625
2102.11299	13990.8625
2105.10435	13966.7625
2108.09379	14002.8625
2111.08131	13989.2625
2114.0669	13978.9625
2117.05057	13993.8625
2120.03233	14019.1625
2123.01216	14065.7625
2125.99008	14090.8625
2128.96609	14095.5625
2131.94018	14078.5625
2134.91236	14088.5625
2137.88263	14131.5625
2140.851	14155.9625
2143.81746	14143.1625
2146.78201	14151.3625
2149.74466	14172.0625
2152.7054	14155.7625
2155.66425	14147.2625
2158.6212	14151.2625
2161.57625	14175.9625
2164.52941	14169.3625
2167.48067	14171.3625
2170.43004	14156.2625
2173.37752	14159.8625
2176.32311	14156.5625
2179.26681	14167.6625
2182.20863	14182.8625
2185.14856	14179.4625
2188.08661	14210.4625
2191.02278	14198.3625
2193.95707	14188.1625
2196.88948	14162.2625
2199.82001	14167.1625
2202.74867	14195.6625
2205.67545	14184.4625
2208.60037	14161.3625
2211.52341	14118.7625
2214.44458	14112.0625
2217.36388	14093.8625
2220.28132	14109.4625
2223.1969	14059.6625
2226.11061	14048.3625
2229.02246	14002.2625
2231.93245	14018.1625
2234.84058	14012.8625
2237.74686	13975.9625
2240.65128	13963.5625
2243.55385	13977.9625
2246.45456	13966.1625
2249.35343	13927.1625
2252.25044	13926.2625
2255.14561	13881.2625
2258.03893	13886.3625
2260.93041	13848.6625
2263.82004	13822.6625
2266.70783	13824.8625
2269.59378	13796.9625
2272.4779	13777.8625
2275.36017	13747.1625
2278.24061	13710.9625
2281.11922	13697.8625
2283.996	13686.9625
2286.87094	13649.4625
2289.74405	13651.7625
2292.61534	13652.0625
2295.4848	13655.4625
2298.35243	13655.0625
2301.21824	13635.6625
2304.08223	13662.6625
2306.94439	13648.7625
2309.80474	13655.8625
2312.66327	13624.7625
2315.51999	13646.9625
2318.37489	13639.5625
2321.22797	13629.7625
2324.07925	13616.9625
2326.92871	13602.3625
2329.77637	13601.1625
2332.62222	13558.1625
2335.46626	13557.3625
2338.3085	13528.9625
2341.14893	13532.2625
2343.98756	13530.4625
2346.8244	13535.5625
2349.65943	13546.8625
2352.49267	13544.3625
2355.32411	13526.2625
2358.15376	13526.1625
2360.98161	13541.4625
2363.80768	13529.2625
2366.63195	13486.6625
2369.45444	13471.8625
2372.27514	13456.0625
2375.09405	13445.0625
2377.91118	13475.3625
2380.72652	13428.0625
2383.54009	13384.8625
2386.35187	13395.6625
2389.16188	13344.8625
2391.97011	13347.8625
2394.77657	13330.6625
2397.58125	13328.2625
2400.38416	13266.0625
2403.18529	13261.3625
2405.98466	13257.0625
2408.78226	13224.7625
2411.57809	13208.1625
2414.37216	13200.3625
2417.16446	13177.0625
2419.955	13175.4625
2422.74378	13212.5625
2425.5308	13185.4625
2428.31606	13194.0625
2431.09956	13174.0625
2433.88131	13190.6625
2436.6613	13155.4625
2439.43954	13189.8625
2442.21603	13176.8625
2444.99077	13171.4625
2447.76377	13188.0625
2450.53501	13190.5625
2453.30451	13212.2625
2456.07226	13144.6625
2458.83827	13151.3625
2461.60254	13105.8625
2464.36507	13156.6625
2467.12586	13164.6625
2469.88492	13194.8625
2472.64224	13173.4625
2475.39782	13188.5625
2478.15167	13136.0625
2480.90379	13144.4625
2483.65417	13154.5625
2486.40283	13163.2625
2489.14976	13182.7625
2491.89497	13148.2625
2494.63845	13143.7625
2497.3802	13124.6625
2500.12024	13134.2625
2502.85855	13155.7625
2505.59514	13149.3625
2508.33002	13121.7625
2511.06318	13079.1625
2513.79462	13100.3625
2516.52435	13070.4625
2519.25237	13069.7625
2521.97867	13050.3625
2524.70327	13052.4625
2527.42616	13037.8625
2530.14734	13024.2625
2532.86681	13032.9625
2535.58458	13042.0625
2538.30065	13033.3625
2541.01501	13022.3625
2543.72768	13015.3625
2546.43864	13001.5625
2549.14791	12972.2625
2551.85548	12979.4625
2554.56136	12979.8625
2557.26554	12924.5625
2559.96803	12936.9625
2562.66883	12920.0625
2565.36794	12930.8625
2568.06536	12913.7625
2570.7611	12889.9625
2573.45514	12878.5625
2576.14751	12894.0625
2578.83819	12859.4625
2581.52719	12853.7625
2584.21451	12843.5625
2586.90015	12817.4625
2589.58411	12794.0625
2592.2664	12811.2625
2594.94701	12796.2625
2597.62594	12771.1625
2600.30321	12768.4625
2602.9788	12771.4625
2605.65273	12764.6625
2608.32498	12761.9625
2610.99557	12764.1625
2613.66449	12772.4625
2616.33175	12767.2625
2618.99734	12746.8625
2621.66128	12751.7625
2624.32355	12755.5625
2626.98416	12737.5625
2629.64311	12721.8625
2632.30041	12668.5625
2634.95605	12646.6625
2637.61004	12633.1625
2640.26238	12609.4625
2642.91306	12665.1625
2645.56209	12619.9625
2648.20948	12627.7625
2650.85521	12596.3625
2653.4993	12648.0625
2656.14175	12622.7625
2658.78255	12623.3625
2661.42171	12605.7625
2664.05923	12643.8625
2666.6951	12667.0625
2669.32934	12696.6625
2671.96194	12680.0625
2674.59291	12702.0625
2677.22224	12702.8625
2679.84993	12677.1625
2682.476	12669.4625
2685.10043	12658.9625
2687.72324	12639.9625
2690.34441	12681.3625
2692.96396	12643.2625
2695.58188	12670.9625
2698.19818	12621.1625
2700.81285	12619.1625
2703.4259	12620.9625
2706.03733	12579.7625
2708.64714	12616.3625
2711.25533	12622.6625
2713.86191	12666.7625
2716.46687	12688.8625
2719.07021	12702.7625
2721.67194	12723.1625
2724.27206	12722.3625
2726.87057	12711.6625
2729.46747	12731.7625
2732.06276	12773.6625
2734.65644	12759.9625
2737.24852	12710.0625
2739.83899	12750.4625
2742.42786	12700.8625
2745.01513	12689.9625
2747.60079	12716.0625
2750.18486	12672.8625
2752.76733	12723.6625
2755.3482	12673.9625
2757.92747	12671.2625
2760.50515	12663.7625
2763.08123	12657.8625
2765.65573	12630.6625
2768.22863	12631.5625
2770.79994	12600.4625
2773.36967	12619.8625
2775.9378	12588.6625
2778.50435	12585.0625
2781.06932	12614.2625
2783.6327	12614.3625
2786.1945	12606.9625
2788.75471	12593.8625
2791.31335	12566.6625
2793.87041	12541.3625
2796.42589	12523.9625
2798.97979	12504.4625
2801.53212	12489.3625
2804.08288	12479.3625
2806.63206	12464.6625
2809.17967	12428.7625
2811.72571	12397.6625
2814.27018	12378.3625
2816.81308	12374.2625
2819.35442	12364.1625
2821.89419	12366.3625
2824.43239	12366.1625
2826.96904	12355.7625
2829.50412	12337.5625
2832.03763	12305.2625
2834.56959	12354.8625
2837.1	12322.7625
2839.62884	12309.8625
2842.15613	12321.3625
2844.68186	12326.4625
2847.20604	12306.7625
2849.72867	12328.0625
2852.24974	12305.9625
2854.76927	12292.8625
2857.28724	12256.6625
2859.80367	12280.6625
2862.31855	12253.3625
2864.83189	12229.3625
2867.34368	12229.0625
2869.85393	12247.1625
2872.36264	12278.8625
2874.8698	12239.5625
2877.37543	12222.8625
2879.87952	12247.7625
2882.38207	12240.1625
2884.88308	12213.7625
2887.38256	12232.2625
2889.88051	12251.7625
2892.37692	12242.2625
2894.8718	12250.4625
2897.36515	12256.4625
2899.85698	12273.7625
2902.34727	12295.4625
2904.83604	12290.9625
2907.32328	12331.9625
2909.809	12338.1625
2912.29319	12351.5625
2914.77587	12350.5625
2917.25702	12344.6625
2919.73665	12344.8625
2922.21476	12336.0625
2924.69136	12321.5625
2927.16644	12345.2625
2929.64	12318.5625
2932.11205	12303.4625
2934.58258	12274.7625
2937.05161	12284.3625
2939.51912	12282.7625
2941.98513	12276.7625
2944.44962	12285.5625
2946.91261	12251.7625
2949.37409	12281.4625
2951.83407	12244.0625
2954.29254	12255.3625
2956.74951	12236.6625
2959.20498	12243.9625
2961.65895	12203.2625
2964.11142	12198.3625
2966.56239	12163.6625
2969.01186	12158.6625
2971.45984	12145.7625
2973.90632	12149.9625
2976.35131	12131.9625
2978.7948	12113.5625
2981.23681	12098.3625
2983.67732	12054.9625
2986.11635	12038.3625
2988.55388	12004.9625
2990.98993	12002.5625
2993.4245	11974.1625
2995.85758	11954.9625
2998.28917	11949.9625
3000.71928	11947.5625
3003.14791	11907.7625
3005.57506	11908.9625
3008.00073	11865.4625
3010.42493	11883.7625
3012.84764	11877.7625
3015.26888	11894.2625
3017.68865	11863.6625
3020.10694	11839.7625
3022.52376	11797.7625
3024.9391	11799.2625
3027.35298	11774.5625
3029.76539	11770.4625
3032.17632	11758.7625
3034.5858	11735.6625
3036.9938	11739.9625
3039.40034	11712.8625
3041.80542	11721.5625
3044.20903	11704.3625
3046.61118	11698.4625
3049.01187	11660.8625
3051.4111	11687.3625
3053.80888	11650.7625
3056.20519	11641.8625
3058.60005	11613.4625
3060.99345	11604.8625
3063.3854	11598.6625
3065.7759	11561.4625
3068.16494	11552.1625
3070.55254	11486.5625
3072.93868	11487.6625
3075.32338	11438.8625
3077.70662	11431.8625
3080.08842	11416.7625
3082.46878	11380.5625
3084.84769	11373.9625
3087.22515	11398.0625
3089.60118	11398.7625
3091.97576	11405.1625
3094.3489	11394.2625
3096.72061	11385.6625
3099.09087	11392.1625
3101.4597	11396.7625
3103.82709	11400.2625
3106.19305	11364.2625
3108.55757	11393.6625
3110.92066	11363.2625
3113.28232	11363.6625
3115.64255	11333.6625
3118.00134	11306.6625
3120.35871	11287.3625
3122.71466	11304.9625
3125.06917	11300.4625
3127.42226	11261.8625
3129.77393	11282.3625
3132.12417	11247.9625
3134.47299	11244.6625
3136.82039	11235.8625
3139.16636	11247.0625
3141.51092	11251.1625
3143.85406	11237.7625
3146.19579	11242.2625
3148.53609	11225.3625
3150.87499	11223.1625
3153.21246	11244.8625
3155.54853	11262.7625
3157.88318	11271.9625
3160.21642	11256.3625
3162.54826	11266.1625
3164.87868	11285.9625
3167.2077	11282.2625
3169.5353	11287.5625
3171.86151	11287.9625
3174.18631	11270.0625
3176.5097	11279.6625
3178.83169	11251.1625
3181.15228	11248.3625
3183.47147	11224.9625
3185.78926	11217.9625
3188.10565	11216.1625
3190.42065	11218.5625
3192.73424	11232.1625
3195.04645	11224.8625
3197.35725	11203.9625
3199.66667	11185.9625
3201.97469	11210.0625
3204.28132	11204.9625
3206.58656	11192.1625
3208.8904	11190.8625
3211.19287	11216.5625
3213.49394	11215.4625
3215.79363	11236.6625
3218.09193	11251.7625
3220.38884	11203.2625
3222.68438	11224.0625
3224.97853	11190.8625
3227.2713	11206.1625
3229.56269	11213.0625
3231.8527	11187.9625
3234.14133	11179.7625
3236.42858	11168.5625
3238.71446	11143.5625
3240.99896	11109.2625
3243.28209	11113.9625
3245.56384	11085.7625
3247.84423	11079.3625
3250.12324	11070.4625
3252.40088	11106.0625
3254.67715	11083.9625
3256.95205	11099.0625
3259.22558	11077.9625
3261.49775	11089.6625
3263.76855	11061.0625
3266.03799	11038.3625
3268.30606	11064.6625
3270.57277	11035.4625
3272.83812	11045.0625
3275.10211	10993.6625
3277.36474	10952.8625
3279.62601	10980.8625
3281.88593	10968.1625
3284.14448	10982.2625
3286.40168	10950.5625
3288.65753	10951.1625
3290.91202	10955.8625
3293.16516	10960.9625
3295.41695	10940.1625
3297.66738	10860.9625
3299.91647	10827.2625
3302.16421	10757.4625
3304.4106	10710.1625
3306.65564	10605.6625
3308.89933	10561.9625
3311.14169	10512.1625
3313.38269	10404.2625
3315.62236	10355.3625
3317.86068	10258.6625
3320.09766	10196.3625
3322.3333	10131.4625
3324.5676	10083.3625
3326.80056	9898.6625
3329.03219	9858.3625
3331.26248	2.9625
3333.49143	-0.5375
3335.71905	1.1625
