Data from AgNPs_FTO_APTES_UA_50uM_CRN_500uM_R6G_10uM_NaF_0.1M_Addition_RamanShift__6__16-48-53-523.txt Node

Date: Mon Feb 21 16:48:53 GMT 2022
User: TCL
Spectrometer: QEP01345
Trigger mode: 4
Integration Time (sec): 7.000000E0
Scans to average: 10
Electric dark correction enabled: true
Nonlinearity correction enabled: false
Boxcar width: 0
XAxis mode: Raman Shifts
Number of Pixels in Spectrum: 1044
>>>>>Begin Spectral Data<<<<<
46.04893	-1.0375
50.45542	-0.6375
54.85868	-0.6375
59.25871	-1.3375
63.6555	43.2625
68.04907	48.4625
72.43941	50.7625
76.82654	47.2625
81.21044	55.7625
85.59113	58.6625
89.96862	57.8625
94.34289	62.0625
98.71396	62.4625
103.08183	65.4625
107.4465	69.3625
111.80798	72.4625
116.16626	68.8625
120.52136	74.1625
124.87327	76.2625
129.222	75.6625
133.56755	79.7625
137.90993	82.0625
142.24913	87.3625
146.58517	98.4625
150.91804	108.2625
155.24774	132.1625
159.57429	149.7625
163.89768	199.3625
168.21792	262.5625
172.53501	355.9625
176.84895	493.5625
181.15975	702.5625
185.46741	977.1625
189.77193	1346.7625
194.07331	1808.8625
198.37157	2332.0625
202.6667	2893.2625
206.9587	3453.3625
211.24758	3984.3625
215.53334	4530.6625
219.81599	5098.2625
224.09553	5755.2625
228.37195	6470.9625
232.64527	7254.8625
236.91549	8072.5625
241.18261	8862.8625
245.44663	9577.6625
249.70755	10191.8625
253.96539	10709.4625
258.22014	11150.4625
262.4718	11502.6625
266.72039	11770.6625
270.96589	11869.9625
275.20832	11881.6625
279.44768	11755.4625
283.68397	11565.9625
287.91719	11443.4625
292.14735	11356.7625
296.37445	11399.9625
300.59849	11505.5625
304.81948	11682.2625
309.03742	11790.1625
313.25231	11750.0625
317.46415	11534.0625
321.67296	11210.9625
325.87872	10879.6625
330.08145	10730.0625
334.28114	10718.2625
338.47781	10815.8625
342.67145	10966.5625
346.86207	11164.3625
351.04966	11472.7625
355.23424	11778.7625
359.4158	12033.2625
363.59435	12212.9625
367.76989	12302.3625
371.94243	12356.7625
376.11196	12388.7625
380.27849	12421.8625
384.44203	12440.0625
388.60257	12472.3625
392.76012	12542.7625
396.91468	12594.3625
401.06626	12797.2625
405.21485	12898.6625
409.36047	12784.9625
413.50311	12456.9625
417.64277	12234.8625
421.77947	12055.6625
425.9132	12039.2625
430.04396	12055.2625
434.17176	12150.0625
438.2966	12243.8625
442.41849	12444.7625
446.53742	12710.6625
450.6534	12978.8625
454.76644	13162.3625
458.87653	13196.2625
462.98368	13100.9625
467.08789	13001.1625
471.18916	12844.6625
475.2875	12650.7625
479.38291	12493.1625
483.4754	12373.6625
487.56496	12270.0625
491.6516	12204.3625
495.73531	12102.4625
499.81612	12112.4625
503.89401	12179.0625
507.96899	12269.0625
512.04106	12295.6625
516.11023	12337.3625
520.1765	12365.9625
524.23987	12339.7625
528.30034	12310.2625
532.35792	12262.8625
536.41261	12105.1625
540.46441	11974.8625
544.51333	11928.3625
548.55936	11977.2625
552.60252	12142.6625
556.64279	12361.6625
560.6802	12464.4625
564.71473	12547.6625
568.7464	12673.3625
572.7752	12821.2625
576.80114	12849.3625
580.82422	12839.9625
584.84444	12985.7625
588.86181	13225.1625
592.87633	13569.1625
596.888	13707.4625
600.89682	13642.2625
604.9028	14087.3625
608.90594	15698.6625
612.90624	17829.5625
616.90371	17073.7625
620.89834	13953.7625
624.89015	12509.2625
628.87913	12269.9625
632.86528	12376.0625
636.84862	12538.6625
640.82913	12445.9625
644.80683	12129.3625
648.78172	11883.7625
652.75379	11863.8625
656.72306	12042.0625
660.68952	12277.5625
664.65319	12191.0625
668.61405	11895.0625
672.57211	11838.8625
676.52738	11899.9625
680.47986	11918.4625
684.42955	11844.9625
688.37646	11776.0625
692.32058	11752.4625
696.26192	11821.2625
700.20048	11927.7625
704.13626	11969.3625
708.06928	11939.6625
711.99952	11926.4625
715.927	11865.8625
719.85171	11897.4625
723.77365	11883.2625
727.69284	11834.5625
731.60928	11731.1625
735.52295	11731.2625
739.43388	11734.6625
743.34206	11769.1625
747.24749	11797.3625
751.15017	11824.8625
755.05012	11929.3625
758.94733	12214.8625
762.8418	12855.1625
766.73354	13981.0625
770.62254	15162.1625
774.50882	15685.9625
778.39237	15161.9625
782.27321	13893.3625
786.15132	12818.2625
790.02671	12151.5625
793.89938	11824.5625
797.76935	11699.4625
801.6366	11634.5625
805.50115	11568.6625
809.36299	11499.1625
813.22213	11458.3625
817.07857	11452.9625
820.93231	11411.2625
824.78336	11394.7625
828.63172	11395.1625
832.47738	11381.2625
836.32036	11361.7625
840.16066	11351.2625
843.99827	11358.6625
847.8332	11321.3625
851.66546	11339.1625
855.49504	11324.9625
859.32195	11330.8625
863.1462	11341.4625
866.96777	11311.5625
870.78668	11310.4625
874.60293	11346.4625
878.41652	11339.6625
882.22745	11394.4625
886.03573	11459.0625
889.84136	11434.0625
893.64433	11385.5625
897.44466	11321.2625
901.24235	11290.5625
905.0374	11230.2625
908.8298	11198.5625
912.61957	11126.9625
916.40671	11185.7625
920.19121	11255.2625
923.97308	11321.2625
927.75233	11399.8625
931.52895	11381.0625
935.30295	11322.9625
939.07433	11127.1625
942.84309	10988.1625
946.60924	10876.1625
950.37278	10796.5625
954.13371	10779.3625
957.89203	10737.0625
961.64774	10708.9625
965.40086	10699.4625
969.15137	10676.3625
972.89929	10644.8625
976.64461	10639.6625
980.38733	10660.5625
984.12747	10653.8625
987.86502	10704.5625
991.59999	10757.2625
995.33237	10879.6625
999.06217	11002.9625
1002.78939	11153.0625
1006.51404	11335.7625
1010.23611	11465.6625
1013.95561	11536.9625
1017.67255	11559.5625
1021.38692	11508.2625
1025.09872	11378.3625
1028.80796	11307.7625
1032.51465	11339.7625
1036.21877	11453.0625
1039.92035	11517.2625
1043.61937	11509.6625
1047.31584	11436.2625
1051.00976	11356.5625
1054.70114	11318.2625
1058.38998	11274.5625
1062.07627	11304.1625
1065.76003	11369.0625
1069.44126	11409.8625
1073.11995	11513.3625
1076.79611	11602.2625
1080.46974	11694.5625
1084.14085	11830.5625
1087.80943	11951.1625
1091.47549	12040.1625
1095.13903	11980.1625
1098.80005	11841.6625
1102.45857	11641.6625
1106.11456	11547.1625
1109.76805	11529.2625
1113.41903	11653.0625
1117.06751	11784.2625
1120.71348	12016.9625
1124.35696	12264.3625
1127.99793	12499.4625
1131.63641	12567.3625
1135.2724	12352.1625
1138.90589	12125.4625
1142.5369	11933.1625
1146.16542	11832.8625
1149.79145	11773.8625
1153.415	11752.4625
1157.03607	11823.9625
1160.65467	12006.1625
1164.27079	12311.9625
1167.88443	12753.4625
1171.49561	13421.6625
1175.10432	14350.2625
1178.71056	15608.6625
1182.31434	16722.2625
1185.91565	17210.1625
1189.51451	17034.5625
1193.11091	16435.3625
1196.70485	15678.4625
1200.29634	15063.5625
1203.88538	14519.8625
1207.47197	13963.5625
1211.05612	13447.1625
1214.63782	13097.8625
1218.21708	12933.1625
1221.79391	12856.7625
1225.36829	12838.3625
1228.94024	12819.9625
1232.50976	12712.5625
1236.07685	12616.9625
1239.6415	12560.7625
1243.20374	12530.3625
1246.76355	12590.8625
1250.32093	12722.4625
1253.8759	12874.7625
1257.42845	13116.1625
1260.97859	13363.3625
1264.52631	13657.8625
1268.07163	14010.3625
1271.61453	14267.4625
1275.15503	14551.9625
1278.69312	14717.7625
1282.22882	14867.5625
1285.76211	15134.0625
1289.29301	15526.7625
1292.82151	16002.5625
1296.34761	16583.0625
1299.87133	17368.1625
1303.39266	18357.4625
1306.9116	19607.0625
1310.42815	20924.6625
1313.94233	21634.8625
1317.45412	21360.4625
1320.96354	20446.7625
1324.47058	19421.5625
1327.97525	18442.0625
1331.47754	17758.6625
1334.97747	17437.6625
1338.47502	17369.1625
1341.97022	17543.2625
1345.46305	17927.7625
1348.95352	18567.9625
1352.44163	19394.3625
1355.92738	20550.8625
1359.41078	22201.3625
1362.89183	23792.8625
1366.37053	23412.1625
1369.84688	20858.3625
1373.32088	18052.5625
1376.79254	16191.5625
1380.26186	15349.4625
1383.72883	15016.2625
1387.19347	14731.5625
1390.65578	14382.4625
1394.11575	14139.4625
1397.57339	14044.7625
1401.0287	14023.1625
1404.48168	14030.1625
1407.93234	13989.0625
1411.38068	13882.0625
1414.82669	13739.8625
1418.27039	13561.6625
1421.71177	13367.8625
1425.15083	13101.8625
1428.58758	12923.0625
1432.02203	12999.4625
1435.45416	13169.2625
1438.88399	13320.1625
1442.31151	13403.8625
1445.73673	13481.9625
1449.15965	13528.8625
1452.58027	13540.9625
1455.9986	13480.4625
1459.41463	13522.5625
1462.82837	13645.6625
1466.23982	13856.0625
1469.64898	14087.1625
1473.05586	14297.6625
1476.46045	14444.8625
1479.86276	14489.5625
1483.26279	14587.7625
1486.66054	14712.8625
1490.05602	14937.2625
1493.44922	15354.3625
1496.84016	15947.3625
1500.22882	16926.2625
1503.61521	18250.6625
1506.99934	19742.9625
1510.38121	20971.9625
1513.76081	21204.3625
1517.13816	20136.4625
1520.51324	18435.2625
1523.88607	16858.7625
1527.25665	15910.0625
1530.62498	15415.7625
1533.99105	15147.7625
1537.35488	14901.4625
1540.71647	14629.3625
1544.07581	14385.6625
1547.4329	14180.6625
1550.78776	14017.7625
1554.14038	13939.5625
1557.49077	13959.6625
1560.83892	14022.5625
1564.18484	14189.9625
1567.52853	14446.0625
1570.86999	14727.2625
1574.20922	14939.5625
1577.54624	14936.7625
1580.88103	14622.0625
1584.2136	14111.2625
1587.54395	13945.3625
1590.87208	14111.4625
1594.19801	14653.6625
1597.52172	15359.3625
1600.84321	15771.9625
1604.16251	15450.2625
1607.47959	14741.9625
1610.79447	13919.6625
1614.10715	13075.4625
1617.41763	12334.1625
1620.7259	11840.0625
1624.03199	11557.2625
1627.33587	11551.2625
1630.63757	11706.1625
1633.93707	12131.4625
1637.23439	12932.1625
1640.52951	14095.8625
1643.82246	15703.3625
1647.11321	17271.4625
1650.40179	18095.4625
1653.68819	17376.0625
1656.97241	15465.1625
1660.25446	13465.6625
1663.53433	12054.4625
1666.81203	11148.9625
1670.08756	10661.3625
1673.36092	10306.5625
1676.63211	10119.3625
1679.90115	9970.5625
1683.16801	9850.0625
1686.43272	9717.5625
1689.69527	9641.1625
1692.95567	9556.1625
1696.2139	9515.0625
1699.46999	9453.4625
1702.72392	9392.8625
1705.97571	9390.3625
1709.22535	9363.4625
1712.47284	9347.9625
1715.71819	9331.2625
1718.96139	9322.8625
1722.20246	9290.4625
1725.44139	9249.8625
1728.67818	9210.7625
1731.91284	9167.5625
1735.14537	9103.9625
1738.37576	9050.3625
1741.60403	9034.6625
1744.83017	9033.1625
1748.05418	9006.2625
1751.27607	9016.6625
1754.49584	8984.0625
1757.71349	8963.6625
1760.92903	8984.0625
1764.14244	8948.9625
1767.35375	8906.4625
1770.56294	8885.4625
1773.77002	8850.9625
1776.97499	8840.0625
1780.17785	8815.1625
1783.37861	8784.3625
1786.57727	8785.9625
1789.77382	8770.1625
1792.96828	8744.0625
1796.16064	8747.2625
1799.3509	8708.9625
1802.53907	8686.8625
1805.72514	8669.6625
1808.90913	8629.3625
1812.09102	8602.0625
1815.27083	8608.4625
1818.44856	8577.3625
1821.6242	8580.7625
1824.79776	8545.9625
1827.96924	8528.0625
1831.13864	8524.1625
1834.30597	8544.0625
1837.47122	8516.9625
1840.6344	8500.2625
1843.7955	8473.3625
1846.95454	8469.4625
1850.11151	8451.3625
1853.26642	8447.6625
1856.41926	8441.3625
1859.57004	8433.0625
1862.71876	8441.8625
1865.86542	8419.3625
1869.01003	8416.0625
1872.15258	8415.9625
1875.29308	8396.4625
1878.43152	8395.7625
1881.56792	8377.8625
1884.70227	8359.3625
1887.83457	8355.4625
1890.96482	8381.6625
1894.09304	8355.8625
1897.21921	8324.3625
1900.34335	8331.5625
1903.46544	8317.7625
1906.58551	8310.9625
1909.70353	8275.5625
1912.81953	8278.0625
1915.93349	8271.9625
1919.04543	8252.0625
1922.15534	8212.4625
1925.26322	8217.2625
1928.36908	8197.6625
1931.47292	8187.1625
1934.57473	8165.6625
1937.67453	8142.1625
1940.77232	8149.1625
1943.86808	8116.0625
1946.96184	8065.2625
1950.05358	8042.9625
1953.14331	8019.1625
1956.23103	8009.6625
1959.31675	7980.9625
1962.40046	7965.1625
1965.48217	7962.1625
1968.56188	7924.6625
1971.63959	7900.3625
1974.7153	7871.7625
1977.78901	7853.7625
1980.86073	7835.9625
1983.93046	7819.7625
1986.99819	7790.9625
1990.06394	7759.1625
1993.1277	7731.3625
1996.18947	7692.1625
1999.24925	7675.7625
2002.30706	7647.7625
2005.36288	7639.8625
2008.41672	7614.8625
2011.46859	7589.9625
2014.51848	7585.9625
2017.56639	7549.8625
2020.61233	7523.2625
2023.6563	7511.0625
2026.6983	7494.4625
2029.73833	7462.6625
2032.7764	7456.1625
2035.8125	7445.9625
2038.84664	7432.0625
2041.87881	7416.2625
2044.90903	7399.4625
2047.93729	7372.5625
2050.96359	7369.8625
2053.98794	7361.0625
2057.01034	7361.1625
2060.03078	7325.5625
2063.04927	7354.8625
2066.06582	7346.9625
2069.08042	7322.3625
2072.09307	7311.6625
2075.10378	7314.1625
2078.11255	7297.3625
2081.11938	7307.7625
2084.12426	7290.5625
2087.12722	7298.8625
2090.12824	7283.6625
2093.12732	7266.2625
2096.12447	7292.7625
2099.11969	7304.2625
2102.11299	7274.6625
2105.10435	7295.1625
2108.09379	7308.3625
2111.08131	7303.4625
2114.0669	7313.8625
2117.05057	7315.4625
2120.03233	7293.2625
2123.01216	7307.7625
2125.99008	7309.0625
2128.96609	7319.8625
2131.94018	7325.8625
2134.91236	7319.4625
2137.88263	7337.3625
2140.851	7326.6625
2143.81746	7325.9625
2146.78201	7343.2625
2149.74466	7347.9625
2152.7054	7336.3625
2155.66425	7330.0625
2158.6212	7308.8625
2161.57625	7327.6625
2164.52941	7292.3625
2167.48067	7300.7625
2170.43004	7302.5625
2173.37752	7302.7625
2176.32311	7295.0625
2179.26681	7294.2625
2182.20863	7306.3625
2185.14856	7317.5625
2188.08661	7286.1625
2191.02278	7309.9625
2193.95707	7299.6625
2196.88948	7289.3625
2199.82001	7273.2625
2202.74867	7279.3625
2205.67545	7273.0625
2208.60037	7246.6625
2211.52341	7237.1625
2214.44458	7229.4625
2217.36388	7198.3625
2220.28132	7210.4625
2223.1969	7197.2625
2226.11061	7175.3625
2229.02246	7146.4625
2231.93245	7161.6625
2234.84058	7132.7625
2237.74686	7126.6625
2240.65128	7103.8625
2243.55385	7088.2625
2246.45456	7076.8625
2249.35343	7085.2625
2252.25044	7062.4625
2255.14561	7073.5625
2258.03893	7055.1625
2260.93041	7039.8625
2263.82004	7015.1625
2266.70783	7003.7625
2269.59378	6999.1625
2272.4779	6961.6625
2275.36017	6959.1625
2278.24061	6952.3625
2281.11922	6945.5625
2283.996	6944.1625
2286.87094	6905.4625
2289.74405	6906.5625
2292.61534	6882.0625
2295.4848	6865.1625
2298.35243	6887.3625
2301.21824	6875.1625
2304.08223	6884.8625
2306.94439	6848.4625
2309.80474	6861.1625
2312.66327	6875.2625
2315.51999	6842.6625
2318.37489	6853.5625
2321.22797	6839.4625
2324.07925	6816.4625
2326.92871	6820.9625
2329.77637	6810.3625
2332.62222	6795.1625
2335.46626	6785.7625
2338.3085	6771.2625
2341.14893	6769.4625
2343.98756	6761.2625
2346.8244	6777.8625
2349.65943	6739.1625
2352.49267	6760.3625
2355.32411	6771.0625
2358.15376	6767.6625
2360.98161	6776.3625
2363.80768	6742.9625
2366.63195	6758.6625
2369.45444	6761.1625
2372.27514	6729.1625
2375.09405	6737.8625
2377.91118	6709.3625
2380.72652	6697.3625
2383.54009	6689.2625
2386.35187	6667.1625
2389.16188	6642.3625
2391.97011	6630.5625
2394.77657	6608.9625
2397.58125	6624.1625
2400.38416	6589.9625
2403.18529	6574.3625
2405.98466	6567.2625
2408.78226	6561.1625
2411.57809	6531.4625
2414.37216	6533.7625
2417.16446	6546.6625
2419.955	6541.9625
2422.74378	6522.7625
2425.5308	6517.2625
2428.31606	6510.1625
2431.09956	6517.6625
2433.88131	6494.0625
2436.6613	6523.6625
2439.43954	6498.7625
2442.21603	6491.1625
2444.99077	6477.9625
2447.76377	6493.6625
2450.53501	6474.2625
2453.30451	6487.8625
2456.07226	6472.8625
2458.83827	6469.9625
2461.60254	6472.6625
2464.36507	6445.6625
2467.12586	6451.9625
2469.88492	6468.1625
2472.64224	6450.8625
2475.39782	6480.6625
2478.15167	6447.3625
2480.90379	6451.3625
2483.65417	6476.4625
2486.40283	6460.8625
2489.14976	6450.0625
2491.89497	6464.2625
2494.63845	6454.4625
2497.3802	6452.6625
2500.12024	6458.7625
2502.85855	6433.2625
2505.59514	6433.4625
2508.33002	6403.7625
2511.06318	6399.9625
2513.79462	6386.6625
2516.52435	6381.7625
2519.25237	6359.8625
2521.97867	6343.5625
2524.70327	6361.2625
2527.42616	6331.0625
2530.14734	6340.4625
2532.86681	6307.0625
2535.58458	6312.1625
2538.30065	6296.3625
2541.01501	6306.8625
2543.72768	6294.6625
2546.43864	6298.4625
2549.14791	6302.4625
2551.85548	6281.3625
2554.56136	6263.8625
2557.26554	6262.1625
2559.96803	6263.2625
2562.66883	6230.0625
2565.36794	6242.0625
2568.06536	6217.8625
2570.7611	6208.9625
2573.45514	6199.9625
2576.14751	6198.4625
2578.83819	6189.3625
2581.52719	6174.7625
2584.21451	6171.8625
2586.90015	6152.6625
2589.58411	6148.4625
2592.2664	6146.4625
2594.94701	6126.9625
2597.62594	6136.0625
2600.30321	6087.4625
2602.9788	6107.8625
2605.65273	6091.8625
2608.32498	6109.2625
2610.99557	6091.4625
2613.66449	6089.9625
2616.33175	6088.8625
2618.99734	6078.2625
2621.66128	6073.6625
2624.32355	6075.6625
2626.98416	6054.3625
2629.64311	6043.1625
2632.30041	6047.9625
2634.95605	6033.6625
2637.61004	6032.5625
2640.26238	6023.9625
2642.91306	6016.4625
2645.56209	6004.2625
2648.20948	6012.7625
2650.85521	5997.3625
2653.4993	5997.2625
2656.14175	5993.6625
2658.78255	6001.3625
2661.42171	6014.2625
2664.05923	6014.7625
2666.6951	6013.7625
2669.32934	6004.4625
2671.96194	6011.4625
2674.59291	6002.9625
2677.22224	6006.6625
2679.84993	6016.2625
2682.476	6002.9625
2685.10043	5999.2625
2687.72324	5994.9625
2690.34441	5997.9625
2692.96396	5989.4625
2695.58188	5993.1625
2698.19818	5997.1625
2700.81285	6006.1625
2703.4259	5991.8625
2706.03733	5974.2625
2708.64714	5976.3625
2711.25533	5996.6625
2713.86191	5984.2625
2716.46687	5991.3625
2719.07021	5995.0625
2721.67194	6010.1625
2724.27206	5996.1625
2726.87057	6004.9625
2729.46747	5996.2625
2732.06276	6011.6625
2734.65644	5995.6625
2737.24852	5985.1625
2739.83899	5982.7625
2742.42786	5987.2625
2745.01513	5968.2625
2747.60079	5958.5625
2750.18486	5959.3625
2752.76733	5954.8625
2755.3482	5942.3625
2757.92747	5925.6625
2760.50515	5912.7625
2763.08123	5932.2625
2765.65573	5920.8625
2768.22863	5923.7625
2770.79994	5917.2625
2773.36967	5911.9625
2775.9378	5889.8625
2778.50435	5884.3625
2781.06932	5882.4625
2783.6327	5880.9625
2786.1945	5892.2625
2788.75471	5872.3625
2791.31335	5855.9625
2793.87041	5835.6625
2796.42589	5844.5625
2798.97979	5823.6625
2801.53212	5795.5625
2804.08288	5804.2625
2806.63206	5798.6625
2809.17967	5805.0625
2811.72571	5786.4625
2814.27018	5788.1625
2816.81308	5770.7625
2819.35442	5771.7625
2821.89419	5763.2625
2824.43239	5764.6625
2826.96904	5761.7625
2829.50412	5766.5625
2832.03763	5744.2625
2834.56959	5746.2625
2837.1	5750.7625
2839.62884	5759.6625
2842.15613	5763.0625
2844.68186	5785.2625
2847.20604	5765.7625
2849.72867	5772.4625
2852.24974	5781.9625
2854.76927	5782.0625
2857.28724	5772.3625
2859.80367	5771.3625
2862.31855	5759.0625
2864.83189	5744.9625
2867.34368	5760.1625
2869.85393	5750.2625
2872.36264	5742.8625
2874.8698	5738.0625
2877.37543	5730.9625
2879.87952	5735.2625
2882.38207	5738.7625
2884.88308	5735.0625
2887.38256	5721.6625
2889.88051	5726.5625
2892.37692	5732.5625
2894.8718	5746.7625
2897.36515	5746.3625
2899.85698	5755.8625
2902.34727	5749.0625
2904.83604	5752.6625
2907.32328	5775.9625
2909.809	5798.3625
2912.29319	5790.1625
2914.77587	5784.7625
2917.25702	5801.7625
2919.73665	5805.0625
2922.21476	5812.3625
2924.69136	5782.4625
2927.16644	5799.8625
2929.64	5781.2625
2932.11205	5758.9625
2934.58258	5743.6625
2937.05161	5750.3625
2939.51912	5756.4625
2941.98513	5737.0625
2944.44962	5726.7625
2946.91261	5695.1625
2949.37409	5714.5625
2951.83407	5724.7625
2954.29254	5687.0625
2956.74951	5702.8625
2959.20498	5672.9625
2961.65895	5666.6625
2964.11142	5666.1625
2966.56239	5657.7625
2969.01186	5634.5625
2971.45984	5625.7625
2973.90632	5634.4625
2976.35131	5611.3625
2978.7948	5606.5625
2981.23681	5568.5625
2983.67732	5562.1625
2986.11635	5547.3625
2988.55388	5527.2625
2990.98993	5541.3625
2993.4245	5517.6625
2995.85758	5524.0625
2998.28917	5518.2625
3000.71928	5483.5625
3003.14791	5478.5625
3005.57506	5490.7625
3008.00073	5487.9625
3010.42493	5458.2625
3012.84764	5458.8625
3015.26888	5469.1625
3017.68865	5453.6625
3020.10694	5456.8625
3022.52376	5432.3625
3024.9391	5434.9625
3027.35298	5414.4625
3029.76539	5410.6625
3032.17632	5395.1625
3034.5858	5379.0625
3036.9938	5391.0625
3039.40034	5386.6625
3041.80542	5374.6625
3044.20903	5361.8625
3046.61118	5373.1625
3049.01187	5356.4625
3051.4111	5350.5625
3053.80888	5326.4625
3056.20519	5333.8625
3058.60005	5326.0625
3060.99345	5327.0625
3063.3854	5311.5625
3065.7759	5297.9625
3068.16494	5291.4625
3070.55254	5274.9625
3072.93868	5271.8625
3075.32338	5266.8625
3077.70662	5260.3625
3080.08842	5223.3625
3082.46878	5236.3625
3084.84769	5219.5625
3087.22515	5227.4625
3089.60118	5233.3625
3091.97576	5232.8625
3094.3489	5242.6625
3096.72061	5241.9625
3099.09087	5242.3625
3101.4597	5230.3625
3103.82709	5240.4625
3106.19305	5235.4625
3108.55757	5238.9625
3110.92066	5223.3625
3113.28232	5214.3625
3115.64255	5211.9625
3118.00134	5194.4625
3120.35871	5198.7625
3122.71466	5189.9625
3125.06917	5196.5625
3127.42226	5179.5625
3129.77393	5180.1625
3132.12417	5178.8625
3134.47299	5178.5625
3136.82039	5174.3625
3139.16636	5177.5625
3141.51092	5186.9625
3143.85406	5190.7625
3146.19579	5180.8625
3148.53609	5190.8625
3150.87499	5195.5625
3153.21246	5207.4625
3155.54853	5215.4625
3157.88318	5211.4625
3160.21642	5221.3625
3162.54826	5221.4625
3164.87868	5240.3625
3167.2077	5214.3625
3169.5353	5230.9625
3171.86151	5219.4625
3174.18631	5211.4625
3176.5097	5233.2625
3178.83169	5214.7625
3181.15228	5196.0625
3183.47147	5215.8625
3185.78926	5203.7625
3188.10565	5187.8625
3190.42065	5192.2625
3192.73424	5196.8625
3195.04645	5202.3625
3197.35725	5202.9625
3199.66667	5198.3625
3201.97469	5215.4625
3204.28132	5220.1625
3206.58656	5223.5625
3208.8904	5228.6625
3211.19287	5215.3625
3213.49394	5222.7625
3215.79363	5215.2625
3218.09193	5223.7625
3220.38884	5236.7625
3222.68438	5244.3625
3224.97853	5242.8625
3227.2713	5244.1625
3229.56269	5226.3625
3231.8527	5232.1625
3234.14133	5201.1625
3236.42858	5215.9625
3238.71446	5198.2625
3240.99896	5182.2625
3243.28209	5198.1625
3245.56384	5162.5625
3247.84423	5187.8625
3250.12324	5167.3625
3252.40088	5178.3625
3254.67715	5169.0625
3256.95205	5164.3625
3259.22558	5166.8625
3261.49775	5163.4625
3263.76855	5151.8625
3266.03799	5127.5625
3268.30606	5134.6625
3270.57277	5142.0625
3272.83812	5146.8625
3275.10211	5120.3625
3277.36474	5116.9625
3279.62601	5098.3625
3281.88593	5106.1625
3284.14448	5088.8625
3286.40168	5104.9625
3288.65753	5110.4625
3290.91202	5105.2625
3293.16516	5072.7625
3295.41695	5078.9625
3297.66738	5062.6625
3299.91647	5051.0625
3302.16421	5019.6625
3304.4106	5002.2625
3306.65564	4974.5625
3308.89933	4948.5625
3311.14169	4920.4625
3313.38269	4867.1625
3315.62236	4836.2625
3317.86068	4802.6625
3320.09766	4750.8625
3322.3333	4745.9625
3324.5676	4705.2625
3326.80056	4660.6625
3329.03219	4624.6625
3331.26248	3.1625
3333.49143	-0.8375
3335.71905	-0.9375
