Data from AgNPs_FTO_APTES_UA_50uM_CRN_0uM_R6G_10uM_NaF_0.1M_Addition_RamanShift__25__10-39-24-653.txt Node

Date: Mon Feb 21 10:39:24 GMT 2022
User: TCL
Spectrometer: QEP01345
Trigger mode: 4
Integration Time (sec): 7.000000E0
Scans to average: 10
Electric dark correction enabled: true
Nonlinearity correction enabled: false
Boxcar width: 0
XAxis mode: Raman Shifts
Number of Pixels in Spectrum: 1044
>>>>>Begin Spectral Data<<<<<
46.04893	0.675
50.45542	-0.825
54.85868	-1.425
59.25871	-1.425
63.6555	44.975
68.04907	50.275
72.43941	53.575
76.82654	52.975
81.21044	52.675
85.59113	58.075
89.96862	56.075
94.34289	60.075
98.71396	63.775
103.08183	68.175
107.4465	70.375
111.80798	66.175
116.16626	68.975
120.52136	68.375
124.87327	73.975
129.222	71.375
133.56755	74.475
137.90993	86.275
142.24913	87.675
146.58517	94.775
150.91804	107.475
155.24774	126.275
159.57429	154.675
163.89768	192.875
168.21792	255.475
172.53501	342.175
176.84895	477.275
181.15975	663.975
185.46741	929.675
189.77193	1271.775
194.07331	1695.975
198.37157	2185.875
202.6667	2696.175
206.9587	3203.275
211.24758	3700.775
215.53334	4212.775
219.81599	4752.375
224.09553	5333.975
228.37195	6007.775
232.64527	6733.375
236.91549	7475.375
241.18261	8225.375
245.44663	8926.975
249.70755	9499.775
253.96539	10025.875
258.22014	10454.775
262.4718	10789.375
266.72039	11052.775
270.96589	11151.475
275.20832	11149.275
279.44768	11006.775
283.68397	10840.975
287.91719	10696.375
292.14735	10602.775
296.37445	10578.775
300.59849	10626.575
304.81948	10722.575
309.03742	10799.075
313.25231	10828.775
317.46415	10760.975
321.67296	10624.875
325.87872	10505.675
330.08145	10436.575
334.28114	10417.075
338.47781	10463.275
342.67145	10588.275
346.86207	10754.375
351.04966	10978.275
355.23424	11191.175
359.4158	11391.675
363.59435	11536.275
367.76989	11619.375
371.94243	11669.075
376.11196	11684.275
380.27849	11763.275
384.44203	11830.775
388.60257	11888.375
392.76012	11955.075
396.91468	12066.275
401.06626	12238.175
405.21485	12364.675
409.36047	12336.875
413.50311	12238.775
417.64277	12209.775
421.77947	12252.775
425.9132	12264.075
430.04396	12306.875
434.17176	12374.175
438.2966	12517.875
442.41849	12805.775
446.53742	13243.875
450.6534	13710.875
454.76644	14000.175
458.87653	14006.475
462.98368	13800.675
467.08789	13502.875
471.18916	13170.875
475.2875	12808.975
479.38291	12549.775
483.4754	12406.275
487.56496	12340.575
491.6516	12220.975
495.73531	12195.475
499.81612	12199.675
503.89401	12305.275
507.96899	12342.175
512.04106	12322.675
516.11023	12217.075
520.1765	12144.375
524.23987	12115.375
528.30034	12139.475
532.35792	12069.975
536.41261	11923.975
540.46441	11716.475
544.51333	11647.175
548.55936	11704.675
552.60252	11914.275
556.64279	12226.675
560.6802	12511.275
564.71473	12626.575
568.7464	12720.575
572.7752	12942.075
576.80114	13288.375
580.82422	13707.275
584.84444	14404.075
588.86181	15485.375
592.87633	16621.575
596.888	16802.375
600.89682	15806.075
604.9028	15050.575
608.90594	15704.575
612.90624	16832.675
616.90371	16077.675
620.89834	13658.075
624.89015	12528.275
628.87913	12364.375
632.86528	12371.275
636.84862	12279.875
640.82913	12070.575
644.80683	11770.575
648.78172	11596.975
652.75379	11616.675
656.72306	11808.275
660.68952	12025.775
664.65319	11947.675
668.61405	11722.375
672.57211	11718.275
676.52738	11826.875
680.47986	11791.575
684.42955	11653.175
688.37646	11574.375
692.32058	11734.375
696.26192	11924.575
700.20048	12125.875
704.13626	12224.075
708.06928	12170.375
711.99952	12115.075
715.927	12141.475
719.85171	12283.175
723.77365	12258.575
727.69284	12039.575
731.60928	11843.375
735.52295	11808.275
739.43388	11825.775
743.34206	11905.975
747.24749	11961.075
751.15017	12064.775
755.05012	12206.175
758.94733	12478.175
762.8418	13000.175
766.73354	13819.175
770.62254	14613.675
774.50882	14863.375
778.39237	14350.875
782.27321	13512.575
786.15132	12784.975
790.02671	12270.675
793.89938	12061.075
797.76935	11961.475
801.6366	11938.675
805.50115	11940.875
809.36299	11905.475
813.22213	11787.575
817.07857	11749.575
820.93231	11644.575
824.78336	11619.975
828.63172	11592.475
832.47738	11583.175
836.32036	11625.875
840.16066	11654.675
843.99827	11715.075
847.8332	11703.775
851.66546	11677.675
855.49504	11665.975
859.32195	11657.475
863.1462	11616.275
866.96777	11576.475
870.78668	11567.075
874.60293	11578.775
878.41652	11627.475
882.22745	11698.675
886.03573	11772.275
889.84136	11757.275
893.64433	11692.775
897.44466	11632.375
901.24235	11567.075
905.0374	11523.175
908.8298	11496.975
912.61957	11470.975
916.40671	11568.875
920.19121	11700.075
923.97308	11854.175
927.75233	11979.175
931.52895	11964.275
935.30295	11763.375
939.07433	11579.975
942.84309	11398.475
946.60924	11351.075
950.37278	11341.275
954.13371	11317.875
957.89203	11273.175
961.64774	11267.275
965.40086	11253.475
969.15137	11266.475
972.89929	11226.275
976.64461	11250.475
980.38733	11249.675
984.12747	11280.175
987.86502	11365.975
991.59999	11500.675
995.33237	11654.275
999.06217	11953.975
1002.78939	12300.075
1006.51404	12560.275
1010.23611	12784.875
1013.95561	12905.575
1017.67255	12947.175
1021.38692	12786.975
1025.09872	12580.775
1028.80796	12533.375
1032.51465	12731.675
1036.21877	12980.175
1039.92035	13037.775
1043.61937	12963.675
1047.31584	12788.175
1051.00976	12523.075
1054.70114	12355.875
1058.38998	12320.275
1062.07627	12327.575
1065.76003	12353.575
1069.44126	12478.175
1073.11995	12672.575
1076.79611	12871.775
1080.46974	13010.075
1084.14085	13168.175
1087.80943	13295.775
1091.47549	13407.975
1095.13903	13328.275
1098.80005	13098.675
1102.45857	12775.775
1106.11456	12619.175
1109.76805	12562.375
1113.41903	12598.375
1117.06751	12675.775
1120.71348	12799.275
1124.35696	12923.575
1127.99793	13055.375
1131.63641	13150.075
1135.2724	13102.275
1138.90589	13028.475
1142.5369	13009.575
1146.16542	13092.175
1149.79145	13139.475
1153.415	13220.075
1157.03607	13305.075
1160.65467	13608.075
1164.27079	14162.975
1167.88443	14867.375
1171.49561	15633.675
1175.10432	16710.075
1178.71056	18144.775
1182.31434	19477.675
1185.91565	20008.975
1189.51451	19678.875
1193.11091	18912.775
1196.70485	18098.575
1200.29634	17393.075
1203.88538	16925.575
1207.47197	16603.775
1211.05612	16301.675
1214.63782	16008.975
1218.21708	15795.275
1221.79391	15640.075
1225.36829	15660.575
1228.94024	15532.375
1232.50976	15220.175
1236.07685	14818.875
1239.6415	14505.675
1243.20374	14444.775
1246.76355	14484.575
1250.32093	14673.075
1253.8759	15015.275
1257.42845	15429.775
1260.97859	15910.275
1264.52631	16379.375
1268.07163	16948.575
1271.61453	17427.375
1275.15503	17925.475
1278.69312	18510.875
1282.22882	19061.675
1285.76211	19796.975
1289.29301	20641.875
1292.82151	21545.575
1296.34761	22653.975
1299.87133	24049.175
1303.39266	25601.575
1306.9116	27147.275
1310.42815	28358.275
1313.94233	28948.275
1317.45412	28551.675
1320.96354	27420.275
1324.47058	26150.475
1327.97525	25235.775
1331.47754	24600.775
1334.97747	24152.475
1338.47502	23655.675
1341.97022	23044.775
1345.46305	22460.775
1348.95352	22314.675
1352.44163	22970.375
1355.92738	24476.275
1359.41078	26506.175
1362.89183	28249.075
1366.37053	28373.875
1369.84688	26209.575
1373.32088	22884.175
1376.79254	20501.675
1380.26186	19549.375
1383.72883	19401.775
1387.19347	19259.775
1390.65578	18835.175
1394.11575	18598.675
1397.57339	18734.675
1401.0287	19102.575
1404.48168	19393.075
1407.93234	19440.775
1411.38068	19244.175
1414.82669	18874.375
1418.27039	18284.175
1421.71177	17683.075
1425.15083	17110.475
1428.58758	16936.675
1432.02203	17198.075
1435.45416	17674.075
1438.88399	18188.675
1442.31151	18395.375
1445.73673	18406.875
1449.15965	18396.675
1452.58027	18229.675
1455.9986	17940.675
1459.41463	17847.975
1462.82837	18059.375
1466.23982	18507.275
1469.64898	18969.475
1473.05586	19357.075
1476.46045	19560.075
1479.86276	19656.975
1483.26279	19573.475
1486.66054	19598.575
1490.05602	19720.875
1493.44922	19907.775
1496.84016	20017.275
1500.22882	20112.175
1503.61521	20333.875
1506.99934	20734.075
1510.38121	21124.075
1513.76081	21224.775
1517.13816	20909.075
1520.51324	20229.575
1523.88607	19695.075
1527.25665	19489.475
1530.62498	19480.075
1533.99105	19396.675
1537.35488	19129.275
1540.71647	18735.675
1544.07581	18224.375
1547.4329	17768.675
1550.78776	17282.175
1554.14038	17034.275
1557.49077	16801.275
1560.83892	16663.675
1564.18484	16660.475
1567.52853	16720.675
1570.86999	16897.275
1574.20922	17200.575
1577.54624	17396.875
1580.88103	17456.775
1584.2136	17627.775
1587.54395	18266.075
1590.87208	19522.075
1594.19801	21141.275
1597.52172	22694.875
1600.84321	23179.275
1604.16251	22118.675
1607.47959	20064.775
1610.79447	17883.275
1614.10715	16089.875
1617.41763	14874.575
1620.7259	14202.275
1624.03199	13930.675
1627.33587	14005.475
1630.63757	14467.975
1633.93707	15333.675
1637.23439	16873.575
1640.52951	19249.875
1643.82246	22222.875
1647.11321	24614.175
1650.40179	24875.475
1653.68819	22557.475
1656.97241	19103.375
1660.25446	16065.975
1663.53433	14096.775
1666.81203	12957.975
1670.08756	12304.175
1673.36092	11913.475
1676.63211	11708.275
1679.90115	11526.475
1683.16801	11345.975
1686.43272	11256.675
1689.69527	11164.375
1692.95567	11009.275
1696.2139	10904.075
1699.46999	10750.875
1702.72392	10718.275
1705.97571	10770.175
1709.22535	10837.975
1712.47284	10891.075
1715.71819	10958.475
1718.96139	10933.475
1722.20246	10904.875
1725.44139	10893.675
1728.67818	10838.975
1731.91284	10765.675
1735.14537	10726.275
1738.37576	10692.275
1741.60403	10649.275
1744.83017	10591.475
1748.05418	10564.475
1751.27607	10516.275
1754.49584	10436.675
1757.71349	10359.375
1760.92903	10330.275
1764.14244	10296.275
1767.35375	10323.975
1770.56294	10314.975
1773.77002	10312.775
1776.97499	10393.875
1780.17785	10432.475
1783.37861	10444.175
1786.57727	10457.175
1789.77382	10457.275
1792.96828	10452.575
1796.16064	10441.875
1799.3509	10410.875
1802.53907	10389.175
1805.72514	10368.575
1808.90913	10357.175
1812.09102	10356.675
1815.27083	10358.075
1818.44856	10321.675
1821.6242	10293.475
1824.79776	10298.675
1827.96924	10281.775
1831.13864	10279.775
1834.30597	10283.675
1837.47122	10302.675
1840.6344	10283.875
1843.7955	10278.375
1846.95454	10295.575
1850.11151	10248.875
1853.26642	10224.375
1856.41926	10241.175
1859.57004	10239.075
1862.71876	10251.475
1865.86542	10245.275
1869.01003	10239.975
1872.15258	10251.275
1875.29308	10219.175
1878.43152	10231.575
1881.56792	10215.975
1884.70227	10220.675
1887.83457	10208.175
1890.96482	10196.175
1894.09304	10176.175
1897.21921	10160.675
1900.34335	10164.975
1903.46544	10165.875
1906.58551	10147.475
1909.70353	10137.775
1912.81953	10138.275
1915.93349	10138.675
1919.04543	10118.275
1922.15534	10093.475
1925.26322	10054.375
1928.36908	10052.975
1931.47292	10044.675
1934.57473	10014.475
1937.67453	9997.675
1940.77232	9985.375
1943.86808	9957.575
1946.96184	9951.975
1950.05358	9909.275
1953.14331	9901.175
1956.23103	9875.475
1959.31675	9808.275
1962.40046	9817.375
1965.48217	9781.275
1968.56188	9785.075
1971.63959	9763.475
1974.7153	9745.175
1977.78901	9696.175
1980.86073	9673.675
1983.93046	9616.075
1986.99819	9596.975
1990.06394	9572.275
1993.1277	9592.875
1996.18947	9561.475
1999.24925	9524.175
2002.30706	9508.875
2005.36288	9460.775
2008.41672	9440.375
2011.46859	9421.075
2014.51848	9405.575
2017.56639	9368.975
2020.61233	9355.275
2023.6563	9375.675
2026.6983	9337.175
2029.73833	9314.275
2032.7764	9289.975
2035.8125	9278.675
2038.84664	9260.675
2041.87881	9271.575
2044.90903	9245.275
2047.93729	9239.575
2050.96359	9223.075
2053.98794	9252.075
2057.01034	9236.975
2060.03078	9217.475
2063.04927	9198.975
2066.06582	9208.075
2069.08042	9182.275
2072.09307	9187.075
2075.10378	9168.475
2078.11255	9205.375
2081.11938	9206.975
2084.12426	9197.675
2087.12722	9199.475
2090.12824	9205.975
2093.12732	9190.175
2096.12447	9199.875
2099.11969	9200.175
2102.11299	9194.175
2105.10435	9227.475
2108.09379	9227.475
2111.08131	9212.475
2114.0669	9226.875
2117.05057	9231.175
2120.03233	9236.775
2123.01216	9251.075
2125.99008	9267.175
2128.96609	9290.175
2131.94018	9291.775
2134.91236	9279.375
2137.88263	9292.175
2140.851	9299.275
2143.81746	9348.875
2146.78201	9323.275
2149.74466	9301.275
2152.7054	9302.675
2155.66425	9318.275
2158.6212	9326.975
2161.57625	9311.275
2164.52941	9302.975
2167.48067	9314.275
2170.43004	9319.775
2173.37752	9300.075
2176.32311	9294.575
2179.26681	9304.275
2182.20863	9346.575
2185.14856	9338.175
2188.08661	9323.075
2191.02278	9345.175
2193.95707	9352.275
2196.88948	9348.775
2199.82001	9336.675
2202.74867	9338.675
2205.67545	9303.975
2208.60037	9290.075
2211.52341	9302.275
2214.44458	9286.075
2217.36388	9274.575
2220.28132	9287.075
2223.1969	9252.475
2226.11061	9252.975
2229.02246	9227.775
2231.93245	9235.675
2234.84058	9203.575
2237.74686	9206.975
2240.65128	9203.875
2243.55385	9181.275
2246.45456	9174.775
2249.35343	9156.075
2252.25044	9164.775
2255.14561	9166.875
2258.03893	9111.075
2260.93041	9082.175
2263.82004	9064.575
2266.70783	9083.875
2269.59378	9062.575
2272.4779	9044.875
2275.36017	9028.475
2278.24061	9016.175
2281.11922	9016.575
2283.996	9001.275
2286.87094	8999.875
2289.74405	8984.775
2292.61534	8972.675
2295.4848	9001.475
2298.35243	8991.975
2301.21824	8971.375
2304.08223	8975.275
2306.94439	8952.575
2309.80474	9019.875
2312.66327	8996.875
2315.51999	8970.275
2318.37489	8968.875
2321.22797	8971.975
2324.07925	8991.175
2326.92871	8946.875
2329.77637	8952.375
2332.62222	8956.875
2335.46626	8915.575
2338.3085	8909.475
2341.14893	8922.475
2343.98756	8938.075
2346.8244	8936.575
2349.65943	8910.975
2352.49267	8932.875
2355.32411	8907.875
2358.15376	8929.075
2360.98161	8914.775
2363.80768	8896.275
2366.63195	8874.375
2369.45444	8899.575
2372.27514	8864.375
2375.09405	8866.275
2377.91118	8857.075
2380.72652	8829.275
2383.54009	8820.675
2386.35187	8808.175
2389.16188	8793.875
2391.97011	8799.275
2394.77657	8779.975
2397.58125	8790.075
2400.38416	8767.275
2403.18529	8776.675
2405.98466	8755.275
2408.78226	8746.175
2411.57809	8724.675
2414.37216	8690.375
2417.16446	8716.175
2419.955	8715.975
2422.74378	8699.275
2425.5308	8685.175
2428.31606	8686.375
2431.09956	8682.775
2433.88131	8705.975
2436.6613	8693.475
2439.43954	8683.275
2442.21603	8692.775
2444.99077	8650.575
2447.76377	8698.275
2450.53501	8669.575
2453.30451	8673.775
2456.07226	8674.175
2458.83827	8671.075
2461.60254	8669.075
2464.36507	8646.575
2467.12586	8645.475
2469.88492	8632.775
2472.64224	8654.075
2475.39782	8644.675
2478.15167	8672.775
2480.90379	8667.975
2483.65417	8673.775
2486.40283	8690.575
2489.14976	8715.575
2491.89497	8708.375
2494.63845	8672.475
2497.3802	8663.875
2500.12024	8680.175
2502.85855	8669.275
2505.59514	8652.775
2508.33002	8667.275
2511.06318	8655.175
2513.79462	8642.675
2516.52435	8676.275
2519.25237	8645.875
2521.97867	8616.175
2524.70327	8627.875
2527.42616	8616.975
2530.14734	8613.175
2532.86681	8646.975
2535.58458	8633.175
2538.30065	8636.575
2541.01501	8615.375
2543.72768	8623.375
2546.43864	8582.275
2549.14791	8588.075
2551.85548	8585.575
2554.56136	8570.975
2557.26554	8579.275
2559.96803	8553.075
2562.66883	8538.975
2565.36794	8549.375
2568.06536	8558.175
2570.7611	8548.575
2573.45514	8538.475
2576.14751	8548.975
2578.83819	8544.275
2581.52719	8531.575
2584.21451	8508.675
2586.90015	8512.175
2589.58411	8494.875
2592.2664	8523.575
2594.94701	8487.175
2597.62594	8493.475
2600.30321	8488.475
2602.9788	8478.975
2605.65273	8497.675
2608.32498	8546.775
2610.99557	8527.275
2613.66449	8499.375
2616.33175	8458.775
2618.99734	8489.375
2621.66128	8463.175
2624.32355	8464.675
2626.98416	8462.775
2629.64311	8448.675
2632.30041	8448.075
2634.95605	8439.175
2637.61004	8425.475
2640.26238	8420.475
2642.91306	8432.275
2645.56209	8404.575
2648.20948	8390.975
2650.85521	8386.575
2653.4993	8390.575
2656.14175	8408.475
2658.78255	8426.375
2661.42171	8424.875
2664.05923	8439.475
2666.6951	8440.675
2669.32934	8460.175
2671.96194	8467.775
2674.59291	8462.675
2677.22224	8446.175
2679.84993	8458.675
2682.476	8429.175
2685.10043	8456.075
2687.72324	8460.575
2690.34441	8447.475
2692.96396	8459.875
2695.58188	8449.775
2698.19818	8441.875
2700.81285	8436.675
2703.4259	8421.875
2706.03733	8310.975
2708.64714	8381.575
2711.25533	8429.275
2713.86191	8461.175
2716.46687	8486.875
2719.07021	8505.275
2721.67194	8508.175
2724.27206	8521.475
2726.87057	8525.075
2729.46747	8518.875
2732.06276	8527.475
2734.65644	8504.175
2737.24852	8535.175
2739.83899	8523.375
2742.42786	8535.575
2745.01513	8531.975
2747.60079	8514.975
2750.18486	8500.275
2752.76733	8497.875
2755.3482	8493.475
2757.92747	8497.275
2760.50515	8479.375
2763.08123	8455.875
2765.65573	8479.975
2768.22863	8484.275
2770.79994	8463.575
2773.36967	8482.375
2775.9378	8475.775
2778.50435	8476.175
2781.06932	8495.475
2783.6327	8480.575
2786.1945	8473.675
2788.75471	8452.775
2791.31335	8441.175
2793.87041	8434.775
2796.42589	8413.675
2798.97979	8427.875
2801.53212	8374.775
2804.08288	8397.375
2806.63206	8396.775
2809.17967	8373.675
2811.72571	8347.675
2814.27018	8330.775
2816.81308	8310.975
2819.35442	8320.775
2821.89419	8315.475
2824.43239	8282.575
2826.96904	8277.275
2829.50412	8289.875
2832.03763	8307.775
2834.56959	8270.375
2837.1	8283.575
2839.62884	8292.175
2842.15613	8295.875
2844.68186	8316.675
2847.20604	8320.375
2849.72867	8315.375
2852.24974	8342.175
2854.76927	8313.075
2857.28724	8266.275
2859.80367	8293.175
2862.31855	8283.675
2864.83189	8263.075
2867.34368	8293.775
2869.85393	8311.975
2872.36264	8302.475
2874.8698	8298.775
2877.37543	8308.875
2879.87952	8311.275
2882.38207	8303.775
2884.88308	8329.975
2887.38256	8338.975
2889.88051	8325.975
2892.37692	8335.575
2894.8718	8312.575
2897.36515	8330.575
2899.85698	8367.675
2902.34727	8389.975
2904.83604	8369.275
2907.32328	8368.575
2909.809	8365.675
2912.29319	8398.075
2914.77587	8399.175
2917.25702	8408.575
2919.73665	8377.975
2922.21476	8402.675
2924.69136	8394.475
2927.16644	8405.975
2929.64	8364.375
2932.11205	8375.275
2934.58258	8342.375
2937.05161	8345.475
2939.51912	8329.475
2941.98513	8322.575
2944.44962	8308.175
2946.91261	8292.475
2949.37409	8292.175
2951.83407	8310.175
2954.29254	8302.775
2956.74951	8299.375
2959.20498	8294.375
2961.65895	8289.775
2964.11142	8270.775
2966.56239	8253.675
2969.01186	8257.975
2971.45984	8229.875
2973.90632	8238.675
2976.35131	8202.075
2978.7948	8196.875
2981.23681	8186.275
2983.67732	8163.975
2986.11635	8168.575
2988.55388	8131.775
2990.98993	8122.675
2993.4245	8106.975
2995.85758	8094.675
2998.28917	8090.475
3000.71928	8056.275
3003.14791	8037.075
3005.57506	8042.775
3008.00073	8020.775
3010.42493	8006.575
3012.84764	8004.175
3015.26888	7998.775
3017.68865	7984.875
3020.10694	7970.675
3022.52376	7968.575
3024.9391	7967.375
3027.35298	7932.375
3029.76539	7950.775
3032.17632	7955.675
3034.5858	7932.275
3036.9938	7944.575
3039.40034	7927.275
3041.80542	7922.675
3044.20903	7919.875
3046.61118	7920.675
3049.01187	7911.275
3051.4111	7907.375
3053.80888	7895.975
3056.20519	7900.775
3058.60005	7891.075
3060.99345	7872.175
3063.3854	7836.175
3065.7759	7835.375
3068.16494	7832.475
3070.55254	7808.375
3072.93868	7797.475
3075.32338	7785.775
3077.70662	7779.375
3080.08842	7742.075
3082.46878	7732.275
3084.84769	7727.975
3087.22515	7761.275
3089.60118	7755.675
3091.97576	7757.775
3094.3489	7744.275
3096.72061	7755.075
3099.09087	7767.175
3101.4597	7746.375
3103.82709	7746.475
3106.19305	7708.075
3108.55757	7732.075
3110.92066	7699.175
3113.28232	7723.475
3115.64255	7716.675
3118.00134	7703.875
3120.35871	7691.475
3122.71466	7667.675
3125.06917	7665.875
3127.42226	7646.475
3129.77393	7647.675
3132.12417	7634.875
3134.47299	7640.675
3136.82039	7650.875
3139.16636	7661.675
3141.51092	7655.275
3143.85406	7680.375
3146.19579	7661.575
3148.53609	7677.475
3150.87499	7671.175
3153.21246	7674.675
3155.54853	7691.775
3157.88318	7693.775
3160.21642	7701.175
3162.54826	7671.975
3164.87868	7720.475
3167.2077	7696.875
3169.5353	7697.175
3171.86151	7701.175
3174.18631	7705.275
3176.5097	7663.475
3178.83169	7698.575
3181.15228	7715.975
3183.47147	7688.075
3185.78926	7685.375
3188.10565	7668.475
3190.42065	7677.075
3192.73424	7649.675
3195.04645	7653.475
3197.35725	7645.575
3199.66667	7664.075
3201.97469	7677.475
3204.28132	7688.575
3206.58656	7708.075
3208.8904	7693.775
3211.19287	7695.775
3213.49394	7720.375
3215.79363	7696.075
3218.09193	7699.575
3220.38884	7693.475
3222.68438	7659.975
3224.97853	7678.875
3227.2713	7689.875
3229.56269	7708.175
3231.8527	7725.375
3234.14133	7722.575
3236.42858	7673.475
3238.71446	7675.375
3240.99896	7656.875
3243.28209	7669.975
3245.56384	7658.775
3247.84423	7657.075
3250.12324	7647.975
3252.40088	7664.175
3254.67715	7630.675
3256.95205	7632.475
3259.22558	7626.775
3261.49775	7627.175
3263.76855	7610.675
3266.03799	7586.475
3268.30606	7588.775
3270.57277	7579.975
3272.83812	7584.875
3275.10211	7566.575
3277.36474	7551.875
3279.62601	7548.175
3281.88593	7556.775
3284.14448	7563.475
3286.40168	7557.575
3288.65753	7551.175
3290.91202	7538.175
3293.16516	7534.875
3295.41695	7510.075
3297.66738	7472.175
3299.91647	7441.475
3302.16421	7407.075
3304.4106	7376.475
3306.65564	7331.475
3308.89933	7289.575
3311.14169	7232.275
3313.38269	7169.975
3315.62236	7134.475
3317.86068	7092.475
3320.09766	7036.175
3322.3333	6981.875
3324.5676	6966.675
3326.80056	6816.875
3329.03219	6796.675
3331.26248	2.375
3333.49143	-0.325
3335.71905	0.475
