Data from AgNPs_FTO_APTES_UA_50uM_CRN_50uM_R6G_10uM_NaF_0.1M_Addition_RamanShift__16__14-51-24-981.txt Node

Date: Mon Feb 21 14:51:24 GMT 2022
User: TCL
Spectrometer: QEP01345
Trigger mode: 4
Integration Time (sec): 7.000000E0
Scans to average: 10
Electric dark correction enabled: true
Nonlinearity correction enabled: false
Boxcar width: 0
XAxis mode: Raman Shifts
Number of Pixels in Spectrum: 1044
>>>>>Begin Spectral Data<<<<<
46.04893	0.075
50.45542	-1.225
54.85868	-0.525
59.25871	-0.925
63.6555	60.375
68.04907	61.975
72.43941	67.875
76.82654	70.075
81.21044	73.475
85.59113	76.975
89.96862	77.275
94.34289	83.675
98.71396	81.775
103.08183	88.975
107.4465	90.575
111.80798	89.575
116.16626	92.075
120.52136	92.475
124.87327	99.975
129.222	98.075
133.56755	103.175
137.90993	117.175
142.24913	120.275
146.58517	133.175
150.91804	143.975
155.24774	172.775
159.57429	212.875
163.89768	268.975
168.21792	354.575
172.53501	472.875
176.84895	663.675
181.15975	929.575
185.46741	1300.175
189.77193	1799.175
194.07331	2405.275
198.37157	3112.775
202.6667	3831.575
206.9587	4573.775
211.24758	5279.475
215.53334	6009.375
219.81599	6759.975
224.09553	7635.475
228.37195	8515.475
232.64527	9612.575
236.91549	10704.475
241.18261	11785.475
245.44663	12800.275
249.70755	13626.475
253.96539	14390.075
258.22014	15023.875
262.4718	15507.475
266.72039	15888.975
270.96589	16039.975
275.20832	16027.275
279.44768	15905.575
283.68397	15671.875
287.91719	15513.375
292.14735	15385.575
296.37445	15397.775
300.59849	15556.075
304.81948	15686.675
309.03742	15742.375
313.25231	15613.075
317.46415	15275.875
321.67296	14756.275
325.87872	14357.375
330.08145	14172.675
334.28114	14192.175
338.47781	14300.575
342.67145	14528.675
346.86207	14801.375
351.04966	15194.675
355.23424	15598.075
359.4158	15987.875
363.59435	16239.275
367.76989	16384.875
371.94243	16489.375
376.11196	16545.975
380.27849	16620.075
384.44203	16660.875
388.60257	16715.775
392.76012	16776.375
396.91468	16894.975
401.06626	17169.175
405.21485	17348.875
409.36047	17236.975
413.50311	16826.975
417.64277	16443.175
421.77947	16241.875
425.9132	16174.375
430.04396	16207.575
434.17176	16279.975
438.2966	16410.575
442.41849	16676.275
446.53742	17031.975
450.6534	17396.175
454.76644	17661.375
458.87653	17805.375
462.98368	17787.975
467.08789	17639.275
471.18916	17476.475
475.2875	17242.275
479.38291	17045.075
483.4754	16918.175
487.56496	16795.775
491.6516	16663.475
495.73531	16611.675
499.81612	16626.675
503.89401	16762.375
507.96899	16861.875
512.04106	16885.775
516.11023	16873.775
520.1765	16922.775
524.23987	16851.575
528.30034	16753.675
532.35792	16672.575
536.41261	16560.975
540.46441	16403.975
544.51333	16335.475
548.55936	16391.275
552.60252	16577.275
556.64279	16804.775
560.6802	16897.375
564.71473	16952.775
568.7464	17123.775
572.7752	17345.175
576.80114	17455.775
580.82422	17446.075
584.84444	17596.575
588.86181	17714.175
592.87633	17869.575
596.888	18004.175
600.89682	18180.675
604.9028	19157.975
608.90594	21489.975
612.90624	24161.975
616.90371	22891.675
620.89834	18848.875
624.89015	17015.875
628.87913	16766.675
632.86528	16903.275
636.84862	16987.975
640.82913	16812.375
644.80683	16385.075
648.78172	16051.975
652.75379	15994.675
656.72306	16225.875
660.68952	16606.175
664.65319	16576.275
668.61405	16279.575
672.57211	16227.575
676.52738	16387.975
680.47986	16399.175
684.42955	16253.975
688.37646	16090.975
692.32058	16073.875
696.26192	16134.975
700.20048	16225.975
704.13626	16314.075
708.06928	16286.275
711.99952	16160.775
715.927	16121.075
719.85171	16162.275
723.77365	16173.675
727.69284	16103.775
731.60928	15997.075
735.52295	15946.975
739.43388	15987.575
743.34206	16020.975
747.24749	16044.075
751.15017	16110.775
755.05012	16219.775
758.94733	16602.375
762.8418	17442.975
766.73354	18968.275
770.62254	20583.175
774.50882	21326.275
778.39237	20626.075
782.27321	18988.775
786.15132	17515.375
790.02671	16569.875
793.89938	16107.175
797.76935	15870.575
801.6366	15799.575
805.50115	15776.275
809.36299	15676.475
813.22213	15541.375
817.07857	15469.775
820.93231	15423.075
824.78336	15383.875
828.63172	15354.475
832.47738	15348.275
836.32036	15365.775
840.16066	15402.575
843.99827	15375.275
847.8332	15365.775
851.66546	15326.175
855.49504	15330.975
859.32195	15368.375
863.1462	15353.175
866.96777	15380.575
870.78668	15397.175
874.60293	15397.275
878.41652	15412.875
882.22745	15477.375
886.03573	15528.075
889.84136	15524.175
893.64433	15416.575
897.44466	15339.475
901.24235	15308.575
905.0374	15214.375
908.8298	15139.675
912.61957	15120.175
916.40671	15131.575
920.19121	15282.775
923.97308	15364.175
927.75233	15470.775
931.52895	15510.575
935.30295	15410.275
939.07433	15170.575
942.84309	14937.775
946.60924	14823.175
950.37278	14763.375
954.13371	14702.275
957.89203	14665.275
961.64774	14632.275
965.40086	14579.475
969.15137	14506.975
972.89929	14499.575
976.64461	14461.875
980.38733	14484.975
984.12747	14507.775
987.86502	14613.675
991.59999	14741.475
995.33237	14942.275
999.06217	15215.175
1002.78939	15544.575
1006.51404	15750.075
1010.23611	15925.875
1013.95561	16054.475
1017.67255	16107.075
1021.38692	15992.475
1025.09872	15823.875
1028.80796	15792.175
1032.51465	15981.875
1036.21877	16194.875
1039.92035	16265.975
1043.61937	16201.275
1047.31584	16019.375
1051.00976	15863.875
1054.70114	15754.675
1058.38998	15761.275
1062.07627	15817.475
1065.76003	15917.175
1069.44126	15974.175
1073.11995	16066.775
1076.79611	16259.475
1080.46974	16396.175
1084.14085	16548.875
1087.80943	16757.375
1091.47549	16897.875
1095.13903	16852.675
1098.80005	16616.875
1102.45857	16325.375
1106.11456	16175.675
1109.76805	16174.075
1113.41903	16247.375
1117.06751	16483.975
1120.71348	16691.775
1124.35696	16965.775
1127.99793	17247.575
1131.63641	17360.575
1135.2724	17170.875
1138.90589	16895.575
1142.5369	16687.875
1146.16542	16510.875
1149.79145	16395.075
1153.415	16383.875
1157.03607	16483.275
1160.65467	16776.575
1164.27079	17274.675
1167.88443	17975.475
1171.49561	18981.475
1175.10432	20292.275
1178.71056	22027.575
1182.31434	23638.375
1185.91565	24477.075
1189.51451	24359.775
1193.11091	23566.775
1196.70485	22476.575
1200.29634	21407.175
1203.88538	20532.875
1207.47197	19720.475
1211.05612	19017.875
1214.63782	18517.475
1218.21708	18287.975
1221.79391	18276.075
1225.36829	18308.775
1228.94024	18234.275
1232.50976	18107.075
1236.07685	17918.075
1239.6415	17809.375
1243.20374	17811.775
1246.76355	17893.375
1250.32093	18077.875
1253.8759	18359.775
1257.42845	18746.075
1260.97859	19191.275
1264.52631	19699.675
1268.07163	20219.175
1271.61453	20734.575
1275.15503	21250.775
1278.69312	21685.975
1282.22882	22012.375
1285.76211	22378.575
1289.29301	22707.275
1292.82151	23232.475
1296.34761	23948.275
1299.87133	24977.375
1303.39266	26344.575
1306.9116	28111.375
1310.42815	29980.675
1313.94233	31058.475
1317.45412	30855.675
1320.96354	29887.275
1324.47058	28756.975
1327.97525	27648.775
1331.47754	26938.775
1334.97747	26633.575
1338.47502	26555.475
1341.97022	26780.175
1345.46305	27158.875
1348.95352	27665.175
1352.44163	28451.675
1355.92738	29716.775
1359.41078	31634.875
1362.89183	33357.075
1366.37053	32686.075
1369.84688	29422.275
1373.32088	25875.275
1376.79254	23453.575
1380.26186	22225.375
1383.72883	21656.175
1387.19347	21253.875
1390.65578	20759.175
1394.11575	20471.975
1397.57339	20367.075
1401.0287	20473.175
1404.48168	20676.575
1407.93234	20752.275
1411.38068	20706.675
1414.82669	20500.075
1418.27039	20183.075
1421.71177	19796.375
1425.15083	19421.075
1428.58758	19131.275
1432.02203	19188.175
1435.45416	19417.575
1438.88399	19722.175
1442.31151	19922.375
1445.73673	20119.275
1449.15965	20266.275
1452.58027	20404.275
1455.9986	20464.575
1459.41463	20585.375
1462.82837	20858.275
1466.23982	21283.075
1469.64898	21681.675
1473.05586	21899.875
1476.46045	22082.075
1479.86276	22117.575
1483.26279	22093.275
1486.66054	22159.175
1490.05602	22367.175
1493.44922	22804.475
1496.84016	23471.975
1500.22882	24515.875
1503.61521	26118.075
1506.99934	27916.175
1510.38121	29388.875
1513.76081	29648.275
1517.13816	28416.675
1520.51324	26332.975
1523.88607	24380.275
1527.25665	23076.475
1530.62498	22389.475
1533.99105	21945.675
1537.35488	21646.675
1540.71647	21406.175
1544.07581	21101.075
1547.4329	20891.275
1550.78776	20726.275
1554.14038	20678.575
1557.49077	20754.675
1560.83892	20901.975
1564.18484	21126.275
1567.52853	21377.775
1570.86999	21632.675
1574.20922	21838.775
1577.54624	21840.875
1580.88103	21342.275
1584.2136	20735.075
1587.54395	20577.875
1590.87208	20972.075
1594.19801	21901.175
1597.52172	23067.275
1600.84321	23566.675
1604.16251	23007.775
1607.47959	21852.475
1610.79447	20574.975
1614.10715	19358.775
1617.41763	18222.575
1620.7259	17356.275
1624.03199	16932.075
1627.33587	16857.575
1630.63757	17156.775
1633.93707	17843.675
1637.23439	19106.075
1640.52951	20746.375
1643.82246	22872.375
1647.11321	24748.475
1650.40179	25639.575
1653.68819	24601.475
1656.97241	21944.575
1660.25446	19212.775
1663.53433	17154.975
1666.81203	15847.875
1670.08756	15085.175
1673.36092	14622.775
1676.63211	14327.175
1679.90115	14055.975
1683.16801	13887.075
1686.43272	13781.275
1689.69527	13644.575
1692.95567	13504.875
1696.2139	13322.875
1699.46999	13215.575
1702.72392	13177.075
1705.97571	13198.775
1709.22535	13277.775
1712.47284	13329.075
1715.71819	13335.975
1718.96139	13321.475
1722.20246	13269.075
1725.44139	13223.475
1728.67818	13169.475
1731.91284	13091.075
1735.14537	13030.975
1738.37576	12971.875
1741.60403	12943.375
1744.83017	12899.175
1748.05418	12868.675
1751.27607	12856.475
1754.49584	12780.975
1757.71349	12726.675
1760.92903	12663.175
1764.14244	12624.675
1767.35375	12617.975
1770.56294	12573.375
1773.77002	12537.275
1776.97499	12559.575
1780.17785	12570.475
1783.37861	12597.875
1786.57727	12579.275
1789.77382	12591.175
1792.96828	12556.775
1796.16064	12508.875
1799.3509	12502.075
1802.53907	12514.375
1805.72514	12454.775
1808.90913	12422.075
1812.09102	12431.075
1815.27083	12389.475
1818.44856	12373.475
1821.6242	12389.675
1824.79776	12356.575
1827.96924	12354.975
1831.13864	12332.375
1834.30597	12319.775
1837.47122	12317.375
1840.6344	12293.375
1843.7955	12312.175
1846.95454	12307.975
1850.11151	12302.675
1853.26642	12291.175
1856.41926	12276.375
1859.57004	12290.475
1862.71876	12243.175
1865.86542	12238.675
1869.01003	12243.675
1872.15258	12216.375
1875.29308	12199.775
1878.43152	12202.675
1881.56792	12176.675
1884.70227	12189.075
1887.83457	12179.175
1890.96482	12157.175
1894.09304	12131.075
1897.21921	12122.875
1900.34335	12117.675
1903.46544	12109.375
1906.58551	12077.375
1909.70353	12060.975
1912.81953	12033.575
1915.93349	12017.275
1919.04543	12015.175
1922.15534	12001.275
1925.26322	11963.775
1928.36908	11933.275
1931.47292	11866.975
1934.57473	11869.875
1937.67453	11848.975
1940.77232	11802.675
1943.86808	11793.675
1946.96184	11762.575
1950.05358	11722.875
1953.14331	11679.275
1956.23103	11662.075
1959.31675	11638.275
1962.40046	11597.775
1965.48217	11561.975
1968.56188	11562.475
1971.63959	11514.175
1974.7153	11471.075
1977.78901	11457.875
1980.86073	11420.675
1983.93046	11348.875
1986.99819	11301.475
1990.06394	11313.675
1993.1277	11280.375
1996.18947	11236.375
1999.24925	11209.875
2002.30706	11153.875
2005.36288	11111.875
2008.41672	11108.175
2011.46859	11085.375
2014.51848	11061.475
2017.56639	11003.175
2020.61233	10977.375
2023.6563	10980.775
2026.6983	10962.275
2029.73833	10920.575
2032.7764	10882.075
2035.8125	10857.475
2038.84664	10873.675
2041.87881	10851.275
2044.90903	10812.675
2047.93729	10811.575
2050.96359	10813.075
2053.98794	10777.775
2057.01034	10791.575
2060.03078	10761.075
2063.04927	10762.975
2066.06582	10771.975
2069.08042	10741.675
2072.09307	10735.175
2075.10378	10730.875
2078.11255	10710.075
2081.11938	10701.875
2084.12426	10698.975
2087.12722	10706.675
2090.12824	10704.775
2093.12732	10701.575
2096.12447	10699.275
2099.11969	10682.175
2102.11299	10702.675
2105.10435	10716.675
2108.09379	10691.075
2111.08131	10744.575
2114.0669	10732.175
2117.05057	10710.275
2120.03233	10744.775
2123.01216	10763.675
2125.99008	10770.075
2128.96609	10771.975
2131.94018	10782.875
2134.91236	10780.975
2137.88263	10773.575
2140.851	10790.675
2143.81746	10800.475
2146.78201	10796.575
2149.74466	10817.575
2152.7054	10820.275
2155.66425	10784.475
2158.6212	10798.675
2161.57625	10775.575
2164.52941	10771.175
2167.48067	10770.175
2170.43004	10773.575
2173.37752	10764.875
2176.32311	10766.475
2179.26681	10778.175
2182.20863	10791.575
2185.14856	10819.975
2188.08661	10795.075
2191.02278	10812.675
2193.95707	10752.075
2196.88948	10754.975
2199.82001	10769.275
2202.74867	10752.575
2205.67545	10767.275
2208.60037	10716.675
2211.52341	10723.975
2214.44458	10716.775
2217.36388	10676.175
2220.28132	10668.375
2223.1969	10630.575
2226.11061	10665.075
2229.02246	10598.775
2231.93245	10579.775
2234.84058	10564.375
2237.74686	10575.675
2240.65128	10539.975
2243.55385	10534.175
2246.45456	10541.975
2249.35343	10518.775
2252.25044	10515.575
2255.14561	10507.375
2258.03893	10479.475
2260.93041	10448.275
2263.82004	10434.875
2266.70783	10427.075
2269.59378	10408.475
2272.4779	10370.175
2275.36017	10338.975
2278.24061	10343.975
2281.11922	10317.775
2283.996	10277.575
2286.87094	10284.375
2289.74405	10269.775
2292.61534	10273.475
2295.4848	10216.775
2298.35243	10247.475
2301.21824	10241.075
2304.08223	10264.475
2306.94439	10230.375
2309.80474	10237.975
2312.66327	10263.975
2315.51999	10216.675
2318.37489	10215.575
2321.22797	10195.975
2324.07925	10207.175
2326.92871	10204.875
2329.77637	10199.275
2332.62222	10142.775
2335.46626	10164.175
2338.3085	10136.075
2341.14893	10161.675
2343.98756	10135.975
2346.8244	10159.175
2349.65943	10144.075
2352.49267	10146.375
2355.32411	10148.375
2358.15376	10148.875
2360.98161	10151.775
2363.80768	10107.575
2366.63195	10124.175
2369.45444	10106.075
2372.27514	10088.775
2375.09405	10068.275
2377.91118	10064.375
2380.72652	10057.175
2383.54009	9996.875
2386.35187	10004.675
2389.16188	9966.275
2391.97011	9938.175
2394.77657	9919.875
2397.58125	9903.575
2400.38416	9921.375
2403.18529	9888.575
2405.98466	9871.675
2408.78226	9853.575
2411.57809	9842.075
2414.37216	9827.475
2417.16446	9821.775
2419.955	9823.375
2422.74378	9785.775
2425.5308	9776.475
2428.31606	9777.275
2431.09956	9778.475
2433.88131	9780.675
2436.6613	9791.775
2439.43954	9781.175
2442.21603	9780.175
2444.99077	9785.275
2447.76377	9770.475
2450.53501	9774.875
2453.30451	9755.675
2456.07226	9736.975
2458.83827	9726.875
2461.60254	9752.075
2464.36507	9760.575
2467.12586	9751.675
2469.88492	9763.675
2472.64224	9741.875
2475.39782	9719.475
2478.15167	9726.475
2480.90379	9739.375
2483.65417	9746.575
2486.40283	9741.275
2489.14976	9767.875
2491.89497	9725.175
2494.63845	9747.275
2497.3802	9687.575
2500.12024	9708.275
2502.85855	9727.575
2505.59514	9721.575
2508.33002	9686.475
2511.06318	9655.075
2513.79462	9655.275
2516.52435	9647.375
2519.25237	9628.875
2521.97867	9608.875
2524.70327	9629.875
2527.42616	9617.775
2530.14734	9591.175
2532.86681	9569.575
2535.58458	9599.275
2538.30065	9602.875
2541.01501	9589.575
2543.72768	9570.775
2546.43864	9568.575
2549.14791	9538.675
2551.85548	9529.175
2554.56136	9498.475
2557.26554	9506.275
2559.96803	9507.875
2562.66883	9502.575
2565.36794	9480.575
2568.06536	9485.875
2570.7611	9466.575
2573.45514	9438.975
2576.14751	9432.675
2578.83819	9413.275
2581.52719	9407.075
2584.21451	9407.975
2586.90015	9401.275
2589.58411	9358.475
2592.2664	9376.975
2594.94701	9342.675
2597.62594	9345.575
2600.30321	9350.475
2602.9788	9339.375
2605.65273	9363.275
2608.32498	9334.875
2610.99557	9316.675
2613.66449	9312.275
2616.33175	9337.675
2618.99734	9327.975
2621.66128	9314.975
2624.32355	9299.275
2626.98416	9313.375
2629.64311	9285.775
2632.30041	9293.175
2634.95605	9261.675
2637.61004	9248.775
2640.26238	9232.475
2642.91306	9234.875
2645.56209	9221.975
2648.20948	9217.175
2650.85521	9212.775
2653.4993	9207.275
2656.14175	9197.975
2658.78255	9203.375
2661.42171	9203.975
2664.05923	9233.175
2666.6951	9245.675
2669.32934	9279.275
2671.96194	9259.375
2674.59291	9259.175
2677.22224	9245.275
2679.84993	9249.275
2682.476	9199.275
2685.10043	9214.575
2687.72324	9201.275
2690.34441	9211.375
2692.96396	9208.975
2695.58188	9225.975
2698.19818	9183.475
2700.81285	9204.775
2703.4259	9153.975
2706.03733	9113.675
2708.64714	9135.975
2711.25533	9166.775
2713.86191	9169.575
2716.46687	9209.875
2719.07021	9204.775
2721.67194	9228.375
2724.27206	9205.575
2726.87057	9234.175
2729.46747	9243.775
2732.06276	9223.575
2734.65644	9233.975
2737.24852	9201.975
2739.83899	9211.875
2742.42786	9206.675
2745.01513	9173.575
2747.60079	9176.175
2750.18486	9198.075
2752.76733	9170.375
2755.3482	9162.875
2757.92747	9142.075
2760.50515	9144.575
2763.08123	9156.575
2765.65573	9132.575
2768.22863	9129.175
2770.79994	9110.975
2773.36967	9096.875
2775.9378	9094.775
2778.50435	9089.775
2781.06932	9096.675
2783.6327	9110.375
2786.1945	9094.275
2788.75471	9098.875
2791.31335	9055.875
2793.87041	9045.275
2796.42589	9020.875
2798.97979	9001.175
2801.53212	8995.275
2804.08288	8999.175
2806.63206	8961.375
2809.17967	8969.275
2811.72571	8964.875
2814.27018	8922.175
2816.81308	8924.075
2819.35442	8935.575
2821.89419	8914.375
2824.43239	8926.475
2826.96904	8898.775
2829.50412	8908.175
2832.03763	8906.475
2834.56959	8893.675
2837.1	8877.375
2839.62884	8899.475
2842.15613	8875.375
2844.68186	8855.275
2847.20604	8869.375
2849.72867	8852.275
2852.24974	8867.575
2854.76927	8831.275
2857.28724	8836.375
2859.80367	8829.175
2862.31855	8819.075
2864.83189	8813.275
2867.34368	8795.575
2869.85393	8827.075
2872.36264	8803.175
2874.8698	8806.075
2877.37543	8813.075
2879.87952	8802.175
2882.38207	8782.775
2884.88308	8782.375
2887.38256	8789.075
2889.88051	8779.675
2892.37692	8796.575
2894.8718	8804.275
2897.36515	8840.675
2899.85698	8820.975
2902.34727	8832.375
2904.83604	8852.375
2907.32328	8851.475
2909.809	8871.675
2912.29319	8890.375
2914.77587	8902.575
2917.25702	8879.875
2919.73665	8872.675
2922.21476	8872.475
2924.69136	8854.175
2927.16644	8849.675
2929.64	8862.475
2932.11205	8851.675
2934.58258	8801.275
2937.05161	8822.675
2939.51912	8827.075
2941.98513	8815.475
2944.44962	8769.075
2946.91261	8765.875
2949.37409	8793.475
2951.83407	8790.675
2954.29254	8773.675
2956.74951	8755.475
2959.20498	8743.775
2961.65895	8738.075
2964.11142	8738.375
2966.56239	8730.575
2969.01186	8700.375
2971.45984	8671.375
2973.90632	8685.675
2976.35131	8670.875
2978.7948	8640.175
2981.23681	8636.975
2983.67732	8613.875
2986.11635	8605.575
2988.55388	8577.375
2990.98993	8570.575
2993.4245	8550.375
2995.85758	8523.475
2998.28917	8509.675
3000.71928	8534.475
3003.14791	8497.475
3005.57506	8487.275
3008.00073	8445.275
3010.42493	8468.375
3012.84764	8437.675
3015.26888	8451.675
3017.68865	8427.675
3020.10694	8434.675
3022.52376	8394.775
3024.9391	8400.275
3027.35298	8377.675
3029.76539	8379.775
3032.17632	8346.275
3034.5858	8336.275
3036.9938	8353.875
3039.40034	8330.975
3041.80542	8340.275
3044.20903	8304.075
3046.61118	8320.075
3049.01187	8287.375
3051.4111	8310.375
3053.80888	8265.975
3056.20519	8255.575
3058.60005	8254.975
3060.99345	8243.775
3063.3854	8226.175
3065.7759	8227.575
3068.16494	8195.875
3070.55254	8181.075
3072.93868	8154.475
3075.32338	8112.975
3077.70662	8086.775
3080.08842	8100.775
3082.46878	8084.875
3084.84769	8091.075
3087.22515	8071.375
3089.60118	8076.075
3091.97576	8068.975
3094.3489	8084.075
3096.72061	8074.275
3099.09087	8054.675
3101.4597	8066.775
3103.82709	8074.675
3106.19305	8056.475
3108.55757	8080.975
3110.92066	8039.675
3113.28232	8031.375
3115.64255	8008.675
3118.00134	8009.975
3120.35871	7994.775
3122.71466	8004.375
3125.06917	8005.075
3127.42226	7987.375
3129.77393	7991.475
3132.12417	7963.875
3134.47299	7973.775
3136.82039	7975.675
3139.16636	7971.275
3141.51092	7972.275
3143.85406	7955.375
3146.19579	7959.775
3148.53609	7960.875
3150.87499	7969.475
3153.21246	7976.075
3155.54853	8014.175
3157.88318	7997.175
3160.21642	8016.475
3162.54826	8011.675
3164.87868	7996.575
3167.2077	7992.475
3169.5353	8017.575
3171.86151	8037.875
3174.18631	8028.675
3176.5097	8011.775
3178.83169	8019.275
3181.15228	7990.975
3183.47147	7950.275
3185.78926	7986.175
3188.10565	7975.775
3190.42065	7971.175
3192.73424	7980.575
3195.04645	7993.275
3197.35725	7978.175
3199.66667	7945.375
3201.97469	7978.775
3204.28132	7958.075
3206.58656	7972.975
3208.8904	7990.275
3211.19287	7977.075
3213.49394	7979.175
3215.79363	7970.975
3218.09193	8008.075
3220.38884	8001.575
3222.68438	7975.875
3224.97853	7960.275
3227.2713	7965.975
3229.56269	7960.875
3231.8527	7953.475
3234.14133	7951.375
3236.42858	7945.475
3238.71446	7928.775
3240.99896	7909.775
3243.28209	7899.775
3245.56384	7907.075
3247.84423	7888.775
3250.12324	7883.475
3252.40088	7908.575
3254.67715	7907.775
3256.95205	7906.775
3259.22558	7910.475
3261.49775	7877.775
3263.76855	7886.275
3266.03799	7870.475
3268.30606	7855.175
3270.57277	7852.975
3272.83812	7848.775
3275.10211	7838.275
3277.36474	7816.975
3279.62601	7804.475
3281.88593	7802.475
3284.14448	7788.475
3286.40168	7805.675
3288.65753	7829.475
3290.91202	7799.375
3293.16516	7793.775
3295.41695	7780.975
3297.66738	7737.275
3299.91647	7704.075
3302.16421	7649.075
3304.4106	7616.575
3306.65564	7573.075
3308.89933	7513.275
3311.14169	7470.175
3313.38269	7404.675
3315.62236	7357.675
3317.86068	7292.875
3320.09766	7234.475
3322.3333	7185.675
3324.5676	7177.075
3326.80056	7041.375
3329.03219	6998.775
3331.26248	3.775
3333.49143	-1.125
3335.71905	-0.625
