Data from AgNPs_FTO_APTES_UA_10um_CRN_0.1mM_R6G_10uM_NaF_0.1M_Addition_RamanShift__10__13-47-09-135.txt Node

Date: Tue Dec 21 13:47:09 GMT 2021
User: TCL
Spectrometer: QEP01345
Trigger mode: 4
Integration Time (sec): 7.000000E0
Scans to average: 10
Electric dark correction enabled: true
Nonlinearity correction enabled: false
Boxcar width: 0
XAxis mode: Raman Shifts
Number of Pixels in Spectrum: 1044
>>>>>Begin Spectral Data<<<<<
46.04893	-0.1625
50.45542	-0.1625
54.85868	-2.0625
59.25871	-0.4625
63.6555	40.7375
68.04907	45.0375
72.43941	45.0375
76.82654	48.4375
81.21044	56.3375
85.59113	56.9375
89.96862	57.1375
94.34289	56.0375
98.71396	59.9375
103.08183	64.9375
107.4465	64.9375
111.80798	62.9375
116.16626	63.8375
120.52136	68.7375
124.87327	68.4375
129.222	72.2375
133.56755	78.2375
137.90993	84.2375
142.24913	92.0375
146.58517	99.5375
150.91804	116.7375
155.24774	142.0375
159.57429	173.2375
163.89768	219.6375
168.21792	282.4375
172.53501	386.4375
176.84895	538.3375
181.15975	758.0375
185.46741	1060.6375
189.77193	1465.8375
194.07331	1973.2375
198.37157	2537.2375
202.6667	3146.5375
206.9587	3753.8375
211.24758	4361.8375
215.53334	4987.5375
219.81599	5631.4375
224.09553	6333.8375
228.37195	7095.1375
232.64527	7896.3375
236.91549	8784.1375
241.18261	9684.4375
245.44663	10535.6375
249.70755	11258.7375
253.96539	11874.2375
258.22014	12400.1375
262.4718	12762.7375
266.72039	13058.2375
270.96589	13172.6375
275.20832	13152.8375
279.44768	13072.2375
283.68397	12967.5375
287.91719	12874.8375
292.14735	12809.0375
296.37445	12805.7375
300.59849	12842.1375
304.81948	12900.3375
309.03742	12928.7375
313.25231	12822.7375
317.46415	12596.1375
321.67296	12279.8375
325.87872	11970.7375
330.08145	11763.8375
334.28114	11663.3375
338.47781	11720.8375
342.67145	11860.9375
346.86207	12012.4375
351.04966	12210.3375
355.23424	12385.5375
359.4158	12533.1375
363.59435	12659.7375
367.76989	12741.8375
371.94243	12781.1375
376.11196	12806.9375
380.27849	12838.7375
384.44203	12887.4375
388.60257	13012.8375
392.76012	13179.0375
396.91468	13418.6375
401.06626	13666.4375
405.21485	13811.5375
409.36047	13780.7375
413.50311	13574.4375
417.64277	13432.6375
421.77947	13375.9375
425.9132	13432.9375
430.04396	13482.9375
434.17176	13535.3375
438.2966	13604.9375
442.41849	13749.2375
446.53742	14022.4375
450.6534	14356.7375
454.76644	14595.6375
458.87653	14669.5375
462.98368	14683.1375
467.08789	14604.7375
471.18916	14526.8375
475.2875	14395.6375
479.38291	14379.6375
483.4754	14359.7375
487.56496	14185.1375
491.6516	13997.9375
495.73531	13747.8375
499.81612	13621.3375
503.89401	13629.6375
507.96899	13642.5375
512.04106	13601.1375
516.11023	13510.4375
520.1765	13341.1375
524.23987	13217.2375
528.30034	13116.9375
532.35792	13000.8375
536.41261	12899.1375
540.46441	12765.1375
544.51333	12745.2375
548.55936	12888.8375
552.60252	13138.3375
556.64279	13446.7375
560.6802	13686.3375
564.71473	13825.0375
568.7464	14075.4375
572.7752	14526.0375
576.80114	14990.4375
580.82422	15489.8375
584.84444	15937.0375
588.86181	16433.2375
592.87633	16790.6375
596.888	16702.8375
600.89682	16160.5375
604.9028	15946.5375
608.90594	16743.8375
612.90624	17699.0375
616.90371	16654.9375
620.89834	14134.2375
624.89015	12966.3375
628.87913	12842.9375
632.86528	13059.3375
636.84862	13156.7375
640.82913	12978.5375
644.80683	12670.8375
648.78172	12418.2375
652.75379	12353.2375
656.72306	12435.9375
660.68952	12610.4375
664.65319	12563.2375
668.61405	12403.0375
672.57211	12384.6375
676.52738	12516.9375
680.47986	12500.1375
684.42955	12479.4375
688.37646	12384.6375
692.32058	12352.9375
696.26192	12451.1375
700.20048	12589.3375
704.13626	12696.8375
708.06928	12765.8375
711.99952	12727.6375
715.927	12677.1375
719.85171	12676.3375
723.77365	12593.2375
727.69284	12421.3375
731.60928	12288.9375
735.52295	12208.9375
739.43388	12193.8375
743.34206	12235.6375
747.24749	12293.5375
751.15017	12394.2375
755.05012	12573.5375
758.94733	12948.5375
762.8418	13595.7375
766.73354	14590.0375
770.62254	15552.8375
774.50882	15717.0375
778.39237	15041.3375
782.27321	14025.0375
786.15132	13115.4375
790.02671	12528.0375
793.89938	12225.3375
797.76935	12088.7375
801.6366	12043.0375
805.50115	11981.9375
809.36299	11912.3375
813.22213	11802.5375
817.07857	11805.1375
820.93231	11706.5375
824.78336	11668.2375
828.63172	11597.0375
832.47738	11583.1375
836.32036	11532.4375
840.16066	11508.8375
843.99827	11496.5375
847.8332	11476.0375
851.66546	11445.7375
855.49504	11455.9375
859.32195	11412.4375
863.1462	11389.9375
866.96777	11376.0375
870.78668	11379.5375
874.60293	11409.3375
878.41652	11402.5375
882.22745	11457.1375
886.03573	11494.8375
889.84136	11515.7375
893.64433	11492.0375
897.44466	11442.6375
901.24235	11375.9375
905.0374	11328.7375
908.8298	11275.0375
912.61957	11278.4375
916.40671	11370.2375
920.19121	11544.8375
923.97308	11659.3375
927.75233	11680.6375
931.52895	11546.2375
935.30295	11365.6375
939.07433	11128.1375
942.84309	10927.4375
946.60924	10845.0375
950.37278	10773.0375
954.13371	10775.1375
957.89203	10754.3375
961.64774	10804.8375
965.40086	10781.5375
969.15137	10734.7375
972.89929	10685.4375
976.64461	10582.9375
980.38733	10570.6375
984.12747	10555.3375
987.86502	10577.2375
991.59999	10638.5375
995.33237	10727.9375
999.06217	10852.6375
1002.78939	11069.2375
1006.51404	11256.3375
1010.23611	11499.2375
1013.95561	11639.7375
1017.67255	11673.6375
1021.38692	11610.9375
1025.09872	11420.4375
1028.80796	11243.5375
1032.51465	11182.1375
1036.21877	11239.3375
1039.92035	11313.7375
1043.61937	11390.2375
1047.31584	11428.6375
1051.00976	11472.9375
1054.70114	11495.5375
1058.38998	11544.8375
1062.07627	11650.1375
1065.76003	11845.6375
1069.44126	11995.6375
1073.11995	12231.7375
1076.79611	12427.9375
1080.46974	12481.3375
1084.14085	12508.0375
1087.80943	12587.7375
1091.47549	12696.7375
1095.13903	12827.6375
1098.80005	12688.7375
1102.45857	12366.4375
1106.11456	12022.5375
1109.76805	11797.5375
1113.41903	11741.1375
1117.06751	11793.6375
1120.71348	11958.0375
1124.35696	12116.6375
1127.99793	12284.0375
1131.63641	12467.9375
1135.2724	12413.7375
1138.90589	12364.3375
1142.5369	12418.3375
1146.16542	12445.6375
1149.79145	12582.8375
1153.415	12704.0375
1157.03607	12853.8375
1160.65467	13140.6375
1164.27079	13715.9375
1167.88443	14443.4375
1171.49561	15304.9375
1175.10432	16291.4375
1178.71056	17574.3375
1182.31434	18711.0375
1185.91565	19357.6375
1189.51451	19408.6375
1193.11091	19023.8375
1196.70485	18421.4375
1200.29634	17646.6375
1203.88538	17038.5375
1207.47197	16609.1375
1211.05612	16359.1375
1214.63782	16008.5375
1218.21708	15589.3375
1221.79391	15099.0375
1225.36829	14763.9375
1228.94024	14566.4375
1232.50976	14457.6375
1236.07685	14291.7375
1239.6415	14176.4375
1243.20374	14153.2375
1246.76355	14222.8375
1250.32093	14412.3375
1253.8759	14683.6375
1257.42845	15118.4375
1260.97859	15578.5375
1264.52631	16087.8375
1268.07163	16530.7375
1271.61453	16969.0375
1275.15503	17404.1375
1278.69312	17965.8375
1282.22882	18499.6375
1285.76211	19212.4375
1289.29301	20038.7375
1292.82151	20959.0375
1296.34761	21991.7375
1299.87133	23038.8375
1303.39266	24139.0375
1306.9116	25094.5375
1310.42815	25846.4375
1313.94233	26253.0375
1317.45412	26158.4375
1320.96354	25796.9375
1324.47058	25442.5375
1327.97525	25278.9375
1331.47754	25126.5375
1334.97747	25028.2375
1338.47502	24809.4375
1341.97022	24680.6375
1345.46305	24475.1375
1348.95352	24327.0375
1352.44163	24268.7375
1355.92738	24507.4375
1359.41078	25218.6375
1362.89183	25945.4375
1366.37053	25762.9375
1369.84688	24188.2375
1373.32088	21847.3375
1376.79254	20032.9375
1380.26186	19201.1375
1383.72883	18962.4375
1387.19347	18867.6375
1390.65578	18658.9375
1394.11575	18535.5375
1397.57339	18592.0375
1401.0287	18738.1375
1404.48168	18823.3375
1407.93234	18700.5375
1411.38068	18262.4375
1414.82669	17636.4375
1418.27039	16911.8375
1421.71177	16247.3375
1425.15083	15680.1375
1428.58758	15367.6375
1432.02203	15474.9375
1435.45416	15770.0375
1438.88399	16142.0375
1442.31151	16435.0375
1445.73673	16703.8375
1449.15965	16940.6375
1452.58027	17091.7375
1455.9986	17225.3375
1459.41463	17380.1375
1462.82837	17678.4375
1466.23982	18013.5375
1469.64898	18319.8375
1473.05586	18506.9375
1476.46045	18518.8375
1479.86276	18448.4375
1483.26279	18408.2375
1486.66054	18407.8375
1490.05602	18614.8375
1493.44922	18958.2375
1496.84016	19426.5375
1500.22882	20027.0375
1503.61521	20711.1375
1506.99934	21430.1375
1510.38121	21952.2375
1513.76081	22006.1375
1517.13816	21532.1375
1520.51324	20825.2375
1523.88607	20274.1375
1527.25665	19926.2375
1530.62498	19785.6375
1533.99105	19576.2375
1537.35488	19234.1375
1540.71647	18698.7375
1544.07581	18049.1375
1547.4329	17410.8375
1550.78776	16941.9375
1554.14038	16575.4375
1557.49077	16426.2375
1560.83892	16452.4375
1564.18484	16518.3375
1567.52853	16658.8375
1570.86999	16852.8375
1574.20922	17190.5375
1577.54624	17451.0375
1580.88103	17500.8375
1584.2136	17503.8375
1587.54395	17709.2375
1590.87208	18324.1375
1594.19801	19164.2375
1597.52172	20084.5375
1600.84321	20362.1375
1604.16251	19548.4375
1607.47959	18141.8375
1610.79447	16648.2375
1614.10715	15255.0375
1617.41763	14111.5375
1620.7259	13259.3375
1624.03199	12854.5375
1627.33587	12742.4375
1630.63757	13031.2375
1633.93707	13785.9375
1637.23439	15084.6375
1640.52951	17102.0375
1643.82246	19622.3375
1647.11321	21900.4375
1650.40179	22779.2375
1653.68819	21684.2375
1656.97241	19104.5375
1660.25446	16308.4375
1663.53433	14024.2375
1666.81203	12468.2375
1670.08756	11492.4375
1673.36092	10837.1375
1676.63211	10449.7375
1679.90115	10162.9375
1683.16801	9949.7375
1686.43272	9767.1375
1689.69527	9650.7375
1692.95567	9540.3375
1696.2139	9540.5375
1699.46999	9477.9375
1702.72392	9440.8375
1705.97571	9372.8375
1709.22535	9320.7375
1712.47284	9263.1375
1715.71819	9232.6375
1718.96139	9195.8375
1722.20246	9149.3375
1725.44139	9097.2375
1728.67818	9053.1375
1731.91284	8988.1375
1735.14537	8935.6375
1738.37576	8894.6375
1741.60403	8842.7375
1744.83017	8813.3375
1748.05418	8805.6375
1751.27607	8809.8375
1754.49584	8812.5375
1757.71349	8823.9375
1760.92903	8833.2375
1764.14244	8795.4375
1767.35375	8780.0375
1770.56294	8736.3375
1773.77002	8679.6375
1776.97499	8631.6375
1780.17785	8594.3375
1783.37861	8563.7375
1786.57727	8535.2375
1789.77382	8499.3375
1792.96828	8485.2375
1796.16064	8444.0375
1799.3509	8398.1375
1802.53907	8385.6375
1805.72514	8375.5375
1808.90913	8346.7375
1812.09102	8304.9375
1815.27083	8299.1375
1818.44856	8274.3375
1821.6242	8264.2375
1824.79776	8263.9375
1827.96924	8254.7375
1831.13864	8247.4375
1834.30597	8231.3375
1837.47122	8226.5375
1840.6344	8202.3375
1843.7955	8218.0375
1846.95454	8191.5375
1850.11151	8207.3375
1853.26642	8182.7375
1856.41926	8188.5375
1859.57004	8176.9375
1862.71876	8163.2375
1865.86542	8161.6375
1869.01003	8141.5375
1872.15258	8125.9375
1875.29308	8117.3375
1878.43152	8093.9375
1881.56792	8079.2375
1884.70227	8046.6375
1887.83457	8043.0375
1890.96482	8028.8375
1894.09304	8019.6375
1897.21921	8014.2375
1900.34335	7985.5375
1903.46544	7969.4375
1906.58551	7974.5375
1909.70353	7933.0375
1912.81953	7907.0375
1915.93349	7889.7375
1919.04543	7876.3375
1922.15534	7857.9375
1925.26322	7834.9375
1928.36908	7820.7375
1931.47292	7792.0375
1934.57473	7785.8375
1937.67453	7746.2375
1940.77232	7749.9375
1943.86808	7717.0375
1946.96184	7689.9375
1950.05358	7690.8375
1953.14331	7662.8375
1956.23103	7613.4375
1959.31675	7600.9375
1962.40046	7562.1375
1965.48217	7550.6375
1968.56188	7506.7375
1971.63959	7486.0375
1974.7153	7474.8375
1977.78901	7458.0375
1980.86073	7417.0375
1983.93046	7391.9375
1986.99819	7366.8375
1990.06394	7326.4375
1993.1277	7306.3375
1996.18947	7287.1375
1999.24925	7275.6375
2002.30706	7235.9375
2005.36288	7210.8375
2008.41672	7205.8375
2011.46859	7146.8375
2014.51848	7147.2375
2017.56639	7128.9375
2020.61233	7084.3375
2023.6563	7090.0375
2026.6983	7073.2375
2029.73833	7051.4375
2032.7764	7033.2375
2035.8125	7012.0375
2038.84664	6983.0375
2041.87881	6988.6375
2044.90903	6968.1375
2047.93729	6954.2375
2050.96359	6944.5375
2053.98794	6948.3375
2057.01034	6955.7375
2060.03078	6947.4375
2063.04927	6910.0375
2066.06582	6905.6375
2069.08042	6871.2375
2072.09307	6892.5375
2075.10378	6890.5375
2078.11255	6872.2375
2081.11938	6877.4375
2084.12426	6861.7375
2087.12722	6865.1375
2090.12824	6831.6375
2093.12732	6860.6375
2096.12447	6862.3375
2099.11969	6836.1375
2102.11299	6839.3375
2105.10435	6846.7375
2108.09379	6847.1375
2111.08131	6840.8375
2114.0669	6838.0375
2117.05057	6840.1375
2120.03233	6853.9375
2123.01216	6868.5375
2125.99008	6882.7375
2128.96609	6886.7375
2131.94018	6851.0375
2134.91236	6868.6375
2137.88263	6848.1375
2140.851	6850.1375
2143.81746	6878.1375
2146.78201	6842.1375
2149.74466	6842.6375
2152.7054	6822.7375
2155.66425	6835.2375
2158.6212	6831.3375
2161.57625	6822.8375
2164.52941	6815.5375
2167.48067	6819.3375
2170.43004	6807.5375
2173.37752	6802.6375
2176.32311	6795.2375
2179.26681	6779.8375
2182.20863	6790.8375
2185.14856	6792.3375
2188.08661	6772.8375
2191.02278	6790.3375
2193.95707	6759.2375
2196.88948	6768.7375
2199.82001	6761.7375
2202.74867	6728.0375
2205.67545	6752.6375
2208.60037	6713.7375
2211.52341	6710.8375
2214.44458	6707.1375
2217.36388	6668.0375
2220.28132	6673.3375
2223.1969	6649.6375
2226.11061	6660.8375
2229.02246	6627.1375
2231.93245	6632.5375
2234.84058	6628.1375
2237.74686	6596.0375
2240.65128	6589.0375
2243.55385	6560.6375
2246.45456	6569.3375
2249.35343	6540.4375
2252.25044	6537.8375
2255.14561	6528.0375
2258.03893	6517.0375
2260.93041	6498.8375
2263.82004	6478.0375
2266.70783	6481.4375
2269.59378	6447.2375
2272.4779	6431.4375
2275.36017	6415.5375
2278.24061	6411.6375
2281.11922	6371.9375
2283.996	6361.5375
2286.87094	6366.3375
2289.74405	6334.4375
2292.61534	6334.0375
2295.4848	6314.3375
2298.35243	6316.7375
2301.21824	6297.5375
2304.08223	6295.2375
2306.94439	6289.3375
2309.80474	6284.1375
2312.66327	6264.3375
2315.51999	6260.2375
2318.37489	6267.2375
2321.22797	6252.3375
2324.07925	6245.2375
2326.92871	6222.6375
2329.77637	6220.8375
2332.62222	6218.0375
2335.46626	6207.6375
2338.3085	6200.5375
2341.14893	6196.1375
2343.98756	6208.7375
2346.8244	6195.8375
2349.65943	6189.4375
2352.49267	6186.8375
2355.32411	6194.8375
2358.15376	6185.3375
2360.98161	6199.2375
2363.80768	6181.3375
2366.63195	6179.3375
2369.45444	6167.7375
2372.27514	6152.2375
2375.09405	6149.5375
2377.91118	6127.2375
2380.72652	6109.7375
2383.54009	6095.5375
2386.35187	6092.2375
2389.16188	6054.9375
2391.97011	6057.2375
2394.77657	6042.9375
2397.58125	6026.9375
2400.38416	6016.2375
2403.18529	5993.3375
2405.98466	6006.8375
2408.78226	5996.8375
2411.57809	5976.3375
2414.37216	5965.2375
2417.16446	5977.8375
2419.955	5969.7375
2422.74378	5936.5375
2425.5308	5948.0375
2428.31606	5935.1375
2431.09956	5942.7375
2433.88131	5918.6375
2436.6613	5909.9375
2439.43954	5915.4375
2442.21603	5917.4375
2444.99077	5906.3375
2447.76377	5930.3375
2450.53501	5887.8375
2453.30451	5907.5375
2456.07226	5893.0375
2458.83827	5914.8375
2461.60254	5888.8375
2464.36507	5873.6375
2467.12586	5885.2375
2469.88492	5877.4375
2472.64224	5882.4375
2475.39782	5876.8375
2478.15167	5885.6375
2480.90379	5891.0375
2483.65417	5863.5375
2486.40283	5853.5375
2489.14976	5866.2375
2491.89497	5856.0375
2494.63845	5877.3375
2497.3802	5871.5375
2500.12024	5869.0375
2502.85855	5849.4375
2505.59514	5845.3375
2508.33002	5827.6375
2511.06318	5827.6375
2513.79462	5814.6375
2516.52435	5813.8375
2519.25237	5814.1375
2521.97867	5798.2375
2524.70327	5782.2375
2527.42616	5779.2375
2530.14734	5789.1375
2532.86681	5764.4375
2535.58458	5766.3375
2538.30065	5754.2375
2541.01501	5748.6375
2543.72768	5726.9375
2546.43864	5735.3375
2549.14791	5718.5375
2551.85548	5712.2375
2554.56136	5714.0375
2557.26554	5700.5375
2559.96803	5704.5375
2562.66883	5694.2375
2565.36794	5690.1375
2568.06536	5685.3375
2570.7611	5667.5375
2573.45514	5661.0375
2576.14751	5667.2375
2578.83819	5666.2375
2581.52719	5658.2375
2584.21451	5637.4375
2586.90015	5624.1375
2589.58411	5626.8375
2592.2664	5620.4375
2594.94701	5612.0375
2597.62594	5605.9375
2600.30321	5593.1375
2602.9788	5583.4375
2605.65273	5569.7375
2608.32498	5573.8375
2610.99557	5578.1375
2613.66449	5567.2375
2616.33175	5558.6375
2618.99734	5560.4375
2621.66128	5541.9375
2624.32355	5543.0375
2626.98416	5543.3375
2629.64311	5535.8375
2632.30041	5521.0375
2634.95605	5529.6375
2637.61004	5527.9375
2640.26238	5533.8375
2642.91306	5514.7375
2645.56209	5496.1375
2648.20948	5501.1375
2650.85521	5504.8375
2653.4993	5509.0375
2656.14175	5498.2375
2658.78255	5489.0375
2661.42171	5503.1375
2664.05923	5517.0375
2666.6951	5536.2375
2669.32934	5506.0375
2671.96194	5506.3375
2674.59291	5518.8375
2677.22224	5508.9375
2679.84993	5509.2375
2682.476	5494.5375
2685.10043	5493.3375
2687.72324	5499.7375
2690.34441	5490.5375
2692.96396	5487.9375
2695.58188	5497.2375
2698.19818	5479.0375
2700.81285	5482.8375
2703.4259	5518.0375
2706.03733	5575.3375
2708.64714	5526.5375
2711.25533	5525.8375
2713.86191	5509.2375
2716.46687	5514.7375
2719.07021	5504.1375
2721.67194	5504.5375
2724.27206	5498.8375
2726.87057	5503.7375
2729.46747	5503.1375
2732.06276	5518.7375
2734.65644	5501.4375
2737.24852	5497.7375
2739.83899	5492.6375
2742.42786	5479.3375
2745.01513	5468.4375
2747.60079	5482.7375
2750.18486	5462.9375
2752.76733	5455.4375
2755.3482	5444.8375
2757.92747	5459.4375
2760.50515	5445.6375
2763.08123	5460.7375
2765.65573	5442.9375
2768.22863	5444.3375
2770.79994	5429.4375
2773.36967	5435.5375
2775.9378	5431.9375
2778.50435	5424.4375
2781.06932	5419.2375
2783.6327	5405.1375
2786.1945	5399.7375
2788.75471	5414.5375
2791.31335	5411.8375
2793.87041	5391.6375
2796.42589	5356.4375
2798.97979	5366.8375
2801.53212	5360.5375
2804.08288	5349.5375
2806.63206	5360.3375
2809.17967	5331.0375
2811.72571	5327.7375
2814.27018	5326.5375
2816.81308	5313.7375
2819.35442	5308.5375
2821.89419	5296.2375
2824.43239	5290.6375
2826.96904	5302.9375
2829.50412	5287.5375
2832.03763	5281.5375
2834.56959	5287.9375
2837.1	5288.4375
2839.62884	5282.8375
2842.15613	5287.6375
2844.68186	5286.8375
2847.20604	5314.4375
2849.72867	5316.8375
2852.24974	5305.3375
2854.76927	5311.1375
2857.28724	5319.9375
2859.80367	5292.8375
2862.31855	5264.7375
2864.83189	5264.3375
2867.34368	5264.8375
2869.85393	5266.4375
2872.36264	5259.8375
2874.8698	5233.4375
2877.37543	5237.8375
2879.87952	5244.7375
2882.38207	5255.4375
2884.88308	5228.2375
2887.38256	5243.1375
2889.88051	5235.6375
2892.37692	5234.8375
2894.8718	5224.9375
2897.36515	5253.3375
2899.85698	5250.0375
2902.34727	5243.1375
2904.83604	5251.3375
2907.32328	5255.4375
2909.809	5266.6375
2912.29319	5266.9375
2914.77587	5264.0375
2917.25702	5270.1375
2919.73665	5264.8375
2922.21476	5264.2375
2924.69136	5268.4375
2927.16644	5256.5375
2929.64	5261.8375
2932.11205	5251.3375
2934.58258	5238.8375
2937.05161	5243.8375
2939.51912	5268.3375
2941.98513	5249.3375
2944.44962	5227.4375
2946.91261	5220.4375
2949.37409	5227.6375
2951.83407	5217.0375
2954.29254	5185.7375
2956.74951	5179.9375
2959.20498	5152.1375
2961.65895	5169.5375
2964.11142	5145.6375
2966.56239	5122.5375
2969.01186	5122.3375
2971.45984	5093.4375
2973.90632	5081.0375
2976.35131	5065.7375
2978.7948	5058.6375
2981.23681	5043.3375
2983.67732	5023.0375
2986.11635	5014.9375
2988.55388	5009.4375
2990.98993	4985.3375
2993.4245	4972.1375
2995.85758	4989.2375
2998.28917	4956.2375
3000.71928	4959.6375
3003.14791	4940.8375
3005.57506	4924.2375
3008.00073	4917.0375
3010.42493	4909.5375
3012.84764	4902.4375
3015.26888	4918.1375
3017.68865	4894.9375
3020.10694	4883.4375
3022.52376	4875.6375
3024.9391	4864.9375
3027.35298	4843.0375
3029.76539	4834.0375
3032.17632	4837.6375
3034.5858	4841.9375
3036.9938	4806.4375
3039.40034	4806.1375
3041.80542	4788.3375
3044.20903	4787.3375
3046.61118	4784.7375
3049.01187	4774.2375
3051.4111	4750.1375
3053.80888	4752.6375
3056.20519	4755.4375
3058.60005	4735.7375
3060.99345	4728.0375
3063.3854	4728.6375
3065.7759	4702.1375
3068.16494	4689.3375
3070.55254	4689.1375
3072.93868	4658.1375
3075.32338	4671.0375
3077.70662	4666.5375
3080.08842	4647.5375
3082.46878	4628.2375
3084.84769	4619.8375
3087.22515	4625.4375
3089.60118	4596.9375
3091.97576	4604.2375
3094.3489	4602.1375
3096.72061	4607.6375
3099.09087	4613.8375
3101.4597	4603.9375
3103.82709	4588.7375
3106.19305	4590.2375
3108.55757	4590.1375
3110.92066	4580.2375
3113.28232	4565.7375
3115.64255	4558.2375
3118.00134	4553.6375
3120.35871	4532.3375
3122.71466	4529.2375
3125.06917	4537.7375
3127.42226	4538.6375
3129.77393	4531.4375
3132.12417	4518.0375
3134.47299	4516.8375
3136.82039	4518.5375
3139.16636	4521.4375
3141.51092	4511.8375
3143.85406	4530.3375
3146.19579	4518.8375
3148.53609	4513.9375
3150.87499	4531.7375
3153.21246	4514.8375
3155.54853	4545.8375
3157.88318	4524.5375
3160.21642	4523.1375
3162.54826	4518.8375
3164.87868	4522.7375
3167.2077	4518.1375
3169.5353	4513.1375
3171.86151	4508.8375
3174.18631	4519.5375
3176.5097	4504.9375
3178.83169	4509.3375
3181.15228	4511.4375
3183.47147	4510.7375
3185.78926	4494.6375
3188.10565	4499.7375
3190.42065	4494.6375
3192.73424	4485.1375
3195.04645	4479.6375
3197.35725	4488.8375
3199.66667	4498.3375
3201.97469	4494.4375
3204.28132	4486.3375
3206.58656	4490.2375
3208.8904	4497.8375
3211.19287	4486.5375
3213.49394	4484.9375
3215.79363	4474.3375
3218.09193	4482.1375
3220.38884	4487.2375
3222.68438	4508.5375
3224.97853	4490.3375
3227.2713	4473.0375
3229.56269	4464.9375
3231.8527	4492.3375
3234.14133	4458.9375
3236.42858	4457.2375
3238.71446	4459.2375
3240.99896	4427.9375
3243.28209	4444.3375
3245.56384	4431.2375
3247.84423	4460.3375
3250.12324	4429.0375
3252.40088	4430.3375
3254.67715	4424.9375
3256.95205	4417.0375
3259.22558	4402.7375
3261.49775	4379.1375
3263.76855	4382.3375
3266.03799	4375.9375
3268.30606	4354.6375
3270.57277	4348.8375
3272.83812	4338.8375
3275.10211	4334.5375
3277.36474	4336.7375
3279.62601	4338.6375
3281.88593	4329.5375
3284.14448	4330.6375
3286.40168	4341.8375
3288.65753	4328.2375
3290.91202	4315.9375
3293.16516	4303.5375
3295.41695	4285.6375
3297.66738	4265.4375
3299.91647	4255.6375
3302.16421	4228.0375
3304.4106	4202.5375
3306.65564	4174.2375
3308.89933	4149.9375
3311.14169	4136.9375
3313.38269	4104.2375
3315.62236	4077.9375
3317.86068	4042.9375
3320.09766	4018.4375
3322.3333	3987.4375
3324.5676	3977.2375
3326.80056	3914.5375
3329.03219	3896.3375
3331.26248	1.8375
3333.49143	0.8375
3335.71905	0.6375
