Data from AgNPs_FTO_APTES_UA_20um_CRN_0.1mM_R6G_10uM_NaF_0.1M_Addition_RamanShift__33__14-54-49-212.txt Node

Date: Tue Dec 21 14:54:49 GMT 2021
User: TCL
Spectrometer: QEP01345
Trigger mode: 4
Integration Time (sec): 7.000000E0
Scans to average: 10
Electric dark correction enabled: true
Nonlinearity correction enabled: false
Boxcar width: 0
XAxis mode: Raman Shifts
Number of Pixels in Spectrum: 1044
>>>>>Begin Spectral Data<<<<<
46.04893	-1.3125
50.45542	-1.0125
54.85868	0.0875
59.25871	-1.0125
63.6555	44.6875
68.04907	48.3875
72.43941	53.6875
76.82654	52.9875
81.21044	59.7875
85.59113	92.9875
89.96862	66.2875
94.34289	64.5875
98.71396	64.5875
103.08183	67.0875
107.4465	70.5875
111.80798	71.3875
116.16626	68.6875
120.52136	69.7875
124.87327	74.6875
129.222	77.4875
133.56755	82.2875
137.90993	85.6875
142.24913	92.3875
146.58517	104.5875
150.91804	113.4875
155.24774	133.9875
159.57429	165.8875
163.89768	208.3875
168.21792	275.8875
172.53501	361.8875
176.84895	496.8875
181.15975	704.8875
185.46741	977.4875
189.77193	1352.5875
194.07331	1799.4875
198.37157	2328.0875
202.6667	2874.9875
206.9587	3427.0875
211.24758	3965.3875
215.53334	4535.5875
219.81599	5108.8875
224.09553	5777.7875
228.37195	6494.0875
232.64527	7287.7875
236.91549	8100.8875
241.18261	8920.2875
245.44663	9646.3875
249.70755	10248.5875
253.96539	10821.1875
258.22014	11297.1875
262.4718	11675.7875
266.72039	11968.5875
270.96589	12113.6875
275.20832	12080.1875
279.44768	11934.9875
283.68397	11742.6875
287.91719	11610.7875
292.14735	11497.2875
296.37445	11494.7875
300.59849	11618.5875
304.81948	11743.2875
309.03742	11827.2875
313.25231	11775.8875
317.46415	11523.6875
321.67296	11208.9875
325.87872	10948.2875
330.08145	10791.9875
334.28114	10827.0875
338.47781	10890.6875
342.67145	11036.6875
346.86207	11256.8875
351.04966	11492.8875
355.23424	11806.2875
359.4158	12037.3875
363.59435	12212.6875
367.76989	12312.5875
371.94243	12399.1875
376.11196	12428.4875
380.27849	12502.6875
384.44203	12565.0875
388.60257	12613.3875
392.76012	12726.4875
396.91468	12818.1875
401.06626	13020.0875
405.21485	13138.3875
409.36047	13090.1875
413.50311	12809.7875
417.64277	12572.4875
421.77947	12440.9875
425.9132	12434.1875
430.04396	12468.3875
434.17176	12576.5875
438.2966	12728.5875
442.41849	13023.6875
446.53742	13442.5875
450.6534	13907.2875
454.76644	14189.2875
458.87653	14189.0875
462.98368	14042.6875
467.08789	13785.3875
471.18916	13536.2875
475.2875	13311.8875
479.38291	13204.8875
483.4754	13075.0875
487.56496	12949.9875
491.6516	12735.7875
495.73531	12592.0875
499.81612	12505.4875
503.89401	12523.3875
507.96899	12516.5875
512.04106	12491.6875
516.11023	12496.3875
520.1765	12489.2875
524.23987	12454.9875
528.30034	12416.2875
532.35792	12356.2875
536.41261	12199.9875
540.46441	12015.4875
544.51333	11890.5875
548.55936	11940.6875
552.60252	12123.5875
556.64279	12434.3875
560.6802	12672.8875
564.71473	12783.0875
568.7464	12987.4875
572.7752	13248.9875
576.80114	13310.2875
580.82422	13357.8875
584.84444	13645.2875
588.86181	14143.1875
592.87633	14801.7875
596.888	15127.8875
600.89682	14907.8875
604.9028	14970.1875
608.90594	16199.1875
612.90624	17978.4875
616.90371	17296.7875
620.89834	14203.6875
624.89015	12669.8875
628.87913	12453.1875
632.86528	12532.3875
636.84862	12543.7875
640.82913	12377.8875
644.80683	12047.2875
648.78172	11766.6875
652.75379	11704.9875
656.72306	11820.5875
660.68952	12082.9875
664.65319	12022.7875
668.61405	11740.7875
672.57211	11641.7875
676.52738	11687.9875
680.47986	11658.3875
684.42955	11581.6875
688.37646	11506.7875
692.32058	11539.0875
696.26192	11638.5875
700.20048	11791.9875
704.13626	11846.0875
708.06928	11831.4875
711.99952	11718.8875
715.927	11712.1875
719.85171	11750.5875
723.77365	11758.0875
727.69284	11646.8875
731.60928	11526.5875
735.52295	11515.8875
739.43388	11538.6875
743.34206	11562.8875
747.24749	11607.4875
751.15017	11673.1875
755.05012	11806.7875
758.94733	12083.5875
762.8418	12676.8875
766.73354	13745.3875
770.62254	14881.2875
774.50882	15421.1875
778.39237	14934.5875
782.27321	13716.4875
786.15132	12600.6875
790.02671	11934.2875
793.89938	11606.2875
797.76935	11474.5875
801.6366	11449.5875
805.50115	11393.3875
809.36299	11357.1875
813.22213	11281.0875
817.07857	11283.6875
820.93231	11207.2875
824.78336	11169.6875
828.63172	11146.8875
832.47738	11151.6875
836.32036	11148.3875
840.16066	11184.0875
843.99827	11184.5875
847.8332	11155.2875
851.66546	11064.7875
855.49504	11035.7875
859.32195	11060.9875
863.1462	11009.6875
866.96777	10951.0875
870.78668	10971.8875
874.60293	10958.2875
878.41652	10966.8875
882.22745	11011.2875
886.03573	11083.4875
889.84136	11068.9875
893.64433	11014.7875
897.44466	10921.3875
901.24235	10876.0875
905.0374	10807.5875
908.8298	10755.9875
912.61957	10725.0875
916.40671	10796.0875
920.19121	10900.2875
923.97308	11026.2875
927.75233	11103.9875
931.52895	11115.2875
935.30295	10989.6875
939.07433	10809.7875
942.84309	10608.5875
946.60924	10532.7875
950.37278	10450.1875
954.13371	10402.4875
957.89203	10403.3875
961.64774	10361.6875
965.40086	10334.7875
969.15137	10309.1875
972.89929	10274.1875
976.64461	10251.1875
980.38733	10265.9875
984.12747	10319.3875
987.86502	10399.6875
991.59999	10477.1875
995.33237	10612.4875
999.06217	10875.2875
1002.78939	11214.9875
1006.51404	11416.1875
1010.23611	11541.4875
1013.95561	11615.3875
1017.67255	11661.7875
1021.38692	11518.0875
1025.09872	11309.8875
1028.80796	11291.1875
1032.51465	11476.9875
1036.21877	11729.6875
1039.92035	11814.9875
1043.61937	11737.0875
1047.31584	11546.1875
1051.00976	11315.9875
1054.70114	11173.6875
1058.38998	11088.4875
1062.07627	11115.4875
1065.76003	11147.5875
1069.44126	11212.5875
1073.11995	11332.2875
1076.79611	11482.3875
1080.46974	11553.2875
1084.14085	11705.0875
1087.80943	11833.3875
1091.47549	11889.9875
1095.13903	11892.6875
1098.80005	11735.4875
1102.45857	11470.6875
1106.11456	11344.4875
1109.76805	11318.7875
1113.41903	11362.6875
1117.06751	11514.0875
1120.71348	11707.6875
1124.35696	11902.4875
1127.99793	12143.1875
1131.63641	12295.6875
1135.2724	12171.9875
1138.90589	11991.6875
1142.5369	11857.1875
1146.16542	11788.7875
1149.79145	11781.2875
1153.415	11854.4875
1157.03607	11926.9875
1160.65467	12142.2875
1164.27079	12543.9875
1167.88443	13137.3875
1171.49561	13944.3875
1175.10432	15025.7875
1178.71056	16523.5875
1182.31434	17885.5875
1185.91565	18360.6875
1189.51451	17972.0875
1193.11091	17117.0875
1196.70485	16239.3875
1200.29634	15555.2875
1203.88538	15138.5875
1207.47197	14696.0875
1211.05612	14362.6875
1214.63782	14052.0875
1218.21708	13910.6875
1221.79391	13828.5875
1225.36829	13841.1875
1228.94024	13709.1875
1232.50976	13426.6875
1236.07685	13116.3875
1239.6415	12993.7875
1243.20374	12979.4875
1246.76355	13095.8875
1250.32093	13261.9875
1253.8759	13519.6875
1257.42845	13851.5875
1260.97859	14191.1875
1264.52631	14541.5875
1268.07163	14954.8875
1271.61453	15349.0875
1275.15503	15733.2875
1278.69312	16099.2875
1282.22882	16515.2875
1285.76211	16931.7875
1289.29301	17540.3875
1292.82151	18291.7875
1296.34761	19257.0875
1299.87133	20393.9875
1303.39266	21756.9875
1306.9116	23276.6875
1310.42815	24686.9875
1313.94233	25477.6875
1317.45412	25301.6875
1320.96354	24323.1875
1324.47058	23201.9875
1327.97525	22154.8875
1331.47754	21473.9875
1334.97747	21032.6875
1338.47502	20747.3875
1341.97022	20441.4875
1345.46305	20166.0875
1348.95352	20215.7875
1352.44163	20793.7875
1355.92738	22042.1875
1359.41078	23865.8875
1362.89183	25615.9875
1366.37053	25680.4875
1369.84688	23356.8875
1373.32088	20217.1875
1376.79254	18149.2875
1380.26186	17269.6875
1383.72883	17062.1875
1387.19347	16921.3875
1390.65578	16634.4875
1394.11575	16462.8875
1397.57339	16600.6875
1401.0287	16886.1875
1404.48168	17079.0875
1407.93234	17062.3875
1411.38068	16753.0875
1414.82669	16302.3875
1418.27039	15749.2875
1421.71177	15160.6875
1425.15083	14656.9875
1428.58758	14382.8875
1432.02203	14522.3875
1435.45416	14855.9875
1438.88399	15253.6875
1442.31151	15471.0875
1445.73673	15650.3875
1449.15965	15770.7875
1452.58027	15777.1875
1455.9986	15661.7875
1459.41463	15590.2875
1462.82837	15750.6875
1466.23982	16018.3875
1469.64898	16327.1875
1473.05586	16567.7875
1476.46045	16685.6875
1479.86276	16734.1875
1483.26279	16664.7875
1486.66054	16651.7875
1490.05602	16767.4875
1493.44922	16953.7875
1496.84016	17172.4875
1500.22882	17631.7875
1503.61521	18325.8875
1506.99934	19289.7875
1510.38121	20188.4875
1513.76081	20487.0875
1517.13816	19913.4875
1520.51324	18704.6875
1523.88607	17635.2875
1527.25665	16958.9875
1530.62498	16710.6875
1533.99105	16564.1875
1537.35488	16370.1875
1540.71647	16070.3875
1544.07581	15711.3875
1547.4329	15350.7875
1550.78776	15056.4875
1554.14038	14840.5875
1557.49077	14685.5875
1560.83892	14672.7875
1564.18484	14732.9875
1567.52853	14912.5875
1570.86999	15173.3875
1574.20922	15471.2875
1577.54624	15628.2875
1580.88103	15535.6875
1584.2136	15359.7875
1587.54395	15620.5875
1590.87208	16277.8875
1594.19801	17288.0875
1597.52172	18425.4875
1600.84321	18903.1875
1604.16251	18255.1875
1607.47959	16772.5875
1610.79447	15113.3875
1614.10715	13680.5875
1617.41763	12711.1875
1620.7259	12107.3875
1624.03199	11847.1875
1627.33587	11872.2875
1630.63757	12202.6875
1633.93707	12894.7875
1637.23439	14008.7875
1640.52951	15744.9875
1643.82246	17928.1875
1647.11321	19948.7875
1650.40179	20639.4875
1653.68819	19434.5875
1656.97241	16855.9875
1660.25446	14292.8875
1663.53433	12422.8875
1666.81203	11251.4875
1670.08756	10584.0875
1673.36092	10146.3875
1676.63211	9879.4875
1679.90115	9702.7875
1683.16801	9545.5875
1686.43272	9411.3875
1689.69527	9310.6875
1692.95567	9246.0875
1696.2139	9190.3875
1699.46999	9144.8875
1702.72392	9119.4875
1705.97571	9045.8875
1709.22535	9018.2875
1712.47284	8968.7875
1715.71819	8952.9875
1718.96139	8937.9875
1722.20246	8886.6875
1725.44139	8850.2875
1728.67818	8813.9875
1731.91284	8720.4875
1735.14537	8676.7875
1738.37576	8672.3875
1741.60403	8625.2875
1744.83017	8608.1875
1748.05418	8579.6875
1751.27607	8569.5875
1754.49584	8573.9875
1757.71349	8543.6875
1760.92903	8537.5875
1764.14244	8529.5875
1767.35375	8539.7875
1770.56294	8470.0875
1773.77002	8445.6875
1776.97499	8422.4875
1780.17785	8421.3875
1783.37861	8373.5875
1786.57727	8358.7875
1789.77382	8330.7875
1792.96828	8323.8875
1796.16064	8297.4875
1799.3509	8265.8875
1802.53907	8274.8875
1805.72514	8253.2875
1808.90913	8203.5875
1812.09102	8204.3875
1815.27083	8172.0875
1818.44856	8148.3875
1821.6242	8152.5875
1824.79776	8107.2875
1827.96924	8094.5875
1831.13864	8083.0875
1834.30597	8091.3875
1837.47122	8064.6875
1840.6344	8074.2875
1843.7955	8064.7875
1846.95454	8040.8875
1850.11151	8030.5875
1853.26642	8014.2875
1856.41926	7993.5875
1859.57004	7993.2875
1862.71876	7982.6875
1865.86542	7994.3875
1869.01003	7984.9875
1872.15258	7985.0875
1875.29308	7961.6875
1878.43152	7961.9875
1881.56792	7946.8875
1884.70227	7932.7875
1887.83457	7935.3875
1890.96482	7933.2875
1894.09304	7921.6875
1897.21921	7913.0875
1900.34335	7919.0875
1903.46544	7896.4875
1906.58551	7870.4875
1909.70353	7868.8875
1912.81953	7872.6875
1915.93349	7830.6875
1919.04543	7860.9875
1922.15534	7815.6875
1925.26322	7787.3875
1928.36908	7786.8875
1931.47292	7757.0875
1934.57473	7733.9875
1937.67453	7697.4875
1940.77232	7683.1875
1943.86808	7656.8875
1946.96184	7645.1875
1950.05358	7636.9875
1953.14331	7601.6875
1956.23103	7580.9875
1959.31675	7559.7875
1962.40046	7545.4875
1965.48217	7518.6875
1968.56188	7507.9875
1971.63959	7472.1875
1974.7153	7454.2875
1977.78901	7438.9875
1980.86073	7390.5875
1983.93046	7367.9875
1986.99819	7341.1875
1990.06394	7335.0875
1993.1277	7304.0875
1996.18947	7273.0875
1999.24925	7244.5875
2002.30706	7223.1875
2005.36288	7210.0875
2008.41672	7194.7875
2011.46859	7153.2875
2014.51848	7139.7875
2017.56639	7136.7875
2020.61233	7103.0875
2023.6563	7084.8875
2026.6983	7066.9875
2029.73833	7052.7875
2032.7764	7047.8875
2035.8125	7012.4875
2038.84664	7022.4875
2041.87881	6992.4875
2044.90903	6976.7875
2047.93729	6962.7875
2050.96359	6973.2875
2053.98794	6980.2875
2057.01034	6953.2875
2060.03078	6949.1875
2063.04927	6936.7875
2066.06582	6915.8875
2069.08042	6908.0875
2072.09307	6922.3875
2075.10378	6896.7875
2078.11255	6905.8875
2081.11938	6901.7875
2084.12426	6878.1875
2087.12722	6872.0875
2090.12824	6874.3875
2093.12732	6865.2875
2096.12447	6876.4875
2099.11969	6857.1875
2102.11299	6846.6875
2105.10435	6869.2875
2108.09379	6855.9875
2111.08131	6873.5875
2114.0669	6874.9875
2117.05057	6883.2875
2120.03233	6885.7875
2123.01216	6883.7875
2125.99008	6872.7875
2128.96609	6890.3875
2131.94018	6880.6875
2134.91236	6871.5875
2137.88263	6871.7875
2140.851	6873.1875
2143.81746	6899.1875
2146.78201	6877.5875
2149.74466	6882.0875
2152.7054	6866.5875
2155.66425	6863.8875
2158.6212	6855.1875
2161.57625	6843.2875
2164.52941	6847.7875
2167.48067	6850.9875
2170.43004	6855.3875
2173.37752	6846.2875
2176.32311	6850.7875
2179.26681	6834.4875
2182.20863	6832.9875
2185.14856	6835.5875
2188.08661	6849.3875
2191.02278	6843.2875
2193.95707	6822.5875
2196.88948	6812.5875
2199.82001	6807.3875
2202.74867	6830.8875
2205.67545	6806.0875
2208.60037	6784.8875
2211.52341	6799.3875
2214.44458	6766.1875
2217.36388	6755.0875
2220.28132	6727.3875
2223.1969	6728.2875
2226.11061	6706.2875
2229.02246	6707.3875
2231.93245	6705.2875
2234.84058	6679.2875
2237.74686	6671.8875
2240.65128	6665.5875
2243.55385	6660.6875
2246.45456	6638.9875
2249.35343	6610.4875
2252.25044	6612.3875
2255.14561	6605.3875
2258.03893	6579.0875
2260.93041	6550.0875
2263.82004	6573.8875
2266.70783	6557.4875
2269.59378	6533.6875
2272.4779	6522.0875
2275.36017	6506.9875
2278.24061	6483.9875
2281.11922	6475.4875
2283.996	6453.2875
2286.87094	6469.5875
2289.74405	6425.9875
2292.61534	6429.4875
2295.4848	6427.2875
2298.35243	6414.2875
2301.21824	6410.3875
2304.08223	6416.5875
2306.94439	6433.1875
2309.80474	6389.7875
2312.66327	6415.9875
2315.51999	6406.0875
2318.37489	6402.1875
2321.22797	6384.5875
2324.07925	6368.7875
2326.92871	6366.5875
2329.77637	6384.7875
2332.62222	6371.4875
2335.46626	6349.6875
2338.3085	6333.4875
2341.14893	6341.1875
2343.98756	6332.0875
2346.8244	6338.7875
2349.65943	6338.5875
2352.49267	6332.5875
2355.32411	6324.9875
2358.15376	6334.9875
2360.98161	6307.3875
2363.80768	6330.9875
2366.63195	6304.8875
2369.45444	6324.7875
2372.27514	6285.8875
2375.09405	6293.1875
2377.91118	6258.8875
2380.72652	6252.3875
2383.54009	6218.5875
2386.35187	6213.2875
2389.16188	6203.4875
2391.97011	6176.7875
2394.77657	6182.8875
2397.58125	6165.3875
2400.38416	6144.9875
2403.18529	6132.1875
2405.98466	6130.3875
2408.78226	6123.6875
2411.57809	6099.9875
2414.37216	6082.7875
2417.16446	6077.2875
2419.955	6066.0875
2422.74378	6073.4875
2425.5308	6068.8875
2428.31606	6070.6875
2431.09956	6054.6875
2433.88131	6063.4875
2436.6613	6037.9875
2439.43954	6055.2875
2442.21603	6041.4875
2444.99077	6044.3875
2447.76377	6047.4875
2450.53501	6057.2875
2453.30451	6017.7875
2456.07226	6040.8875
2458.83827	6023.6875
2461.60254	6027.2875
2464.36507	6028.1875
2467.12586	6027.0875
2469.88492	6016.5875
2472.64224	6017.3875
2475.39782	6017.0875
2478.15167	6026.0875
2480.90379	6004.3875
2483.65417	6019.2875
2486.40283	6013.8875
2489.14976	6002.6875
2491.89497	6018.2875
2494.63845	6037.8875
2497.3802	6013.8875
2500.12024	6020.5875
2502.85855	6017.3875
2505.59514	6004.4875
2508.33002	5976.1875
2511.06318	5977.9875
2513.79462	5970.5875
2516.52435	5948.9875
2519.25237	5935.0875
2521.97867	5940.2875
2524.70327	5910.0875
2527.42616	5920.6875
2530.14734	5914.9875
2532.86681	5913.5875
2535.58458	5898.9875
2538.30065	5891.5875
2541.01501	5900.9875
2543.72768	5881.0875
2546.43864	5887.5875
2549.14791	5866.3875
2551.85548	5876.5875
2554.56136	5867.2875
2557.26554	5843.2875
2559.96803	5857.7875
2562.66883	5855.9875
2565.36794	5841.8875
2568.06536	5844.6875
2570.7611	5812.2875
2573.45514	5821.1875
2576.14751	5802.2875
2578.83819	5807.2875
2581.52719	5812.2875
2584.21451	5786.6875
2586.90015	5785.3875
2589.58411	5802.4875
2592.2664	5773.1875
2594.94701	5751.7875
2597.62594	5756.9875
2600.30321	5749.1875
2602.9788	5741.0875
2605.65273	5721.1875
2608.32498	5736.8875
2610.99557	5752.8875
2613.66449	5752.5875
2616.33175	5734.1875
2618.99734	5728.0875
2621.66128	5720.0875
2624.32355	5724.0875
2626.98416	5727.5875
2629.64311	5705.0875
2632.30041	5692.6875
2634.95605	5708.7875
2637.61004	5689.5875
2640.26238	5665.9875
2642.91306	5679.0875
2645.56209	5661.0875
2648.20948	5682.1875
2650.85521	5656.7875
2653.4993	5660.4875
2656.14175	5669.8875
2658.78255	5672.5875
2661.42171	5677.5875
2664.05923	5679.6875
2666.6951	5668.7875
2669.32934	5694.5875
2671.96194	5673.5875
2674.59291	5677.6875
2677.22224	5665.9875
2679.84993	5655.5875
2682.476	5660.0875
2685.10043	5682.5875
2687.72324	5648.9875
2690.34441	5648.3875
2692.96396	5650.7875
2695.58188	5658.5875
2698.19818	5655.1875
2700.81285	5667.9875
2703.4259	5680.0875
2706.03733	5725.8875
2708.64714	5682.0875
2711.25533	5675.6875
2713.86191	5671.8875
2716.46687	5675.0875
2719.07021	5675.4875
2721.67194	5688.1875
2724.27206	5652.7875
2726.87057	5657.4875
2729.46747	5683.0875
2732.06276	5679.8875
2734.65644	5656.8875
2737.24852	5673.3875
2739.83899	5630.2875
2742.42786	5642.6875
2745.01513	5632.0875
2747.60079	5643.7875
2750.18486	5633.1875
2752.76733	5634.9875
2755.3482	5628.9875
2757.92747	5610.9875
2760.50515	5625.8875
2763.08123	5642.8875
2765.65573	5621.7875
2768.22863	5625.2875
2770.79994	5612.6875
2773.36967	5623.0875
2775.9378	5615.1875
2778.50435	5603.7875
2781.06932	5588.3875
2783.6327	5600.1875
2786.1945	5598.6875
2788.75471	5576.3875
2791.31335	5582.3875
2793.87041	5562.5875
2796.42589	5543.6875
2798.97979	5552.2875
2801.53212	5524.1875
2804.08288	5532.3875
2806.63206	5508.4875
2809.17967	5523.2875
2811.72571	5500.4875
2814.27018	5495.1875
2816.81308	5491.0875
2819.35442	5490.1875
2821.89419	5497.6875
2824.43239	5464.7875
2826.96904	5473.5875
2829.50412	5463.6875
2832.03763	5465.8875
2834.56959	5475.0875
2837.1	5454.3875
2839.62884	5483.6875
2842.15613	5494.8875
2844.68186	5489.9875
2847.20604	5510.9875
2849.72867	5508.9875
2852.24974	5535.9875
2854.76927	5530.5875
2857.28724	5527.7875
2859.80367	5526.6875
2862.31855	5474.7875
2864.83189	5477.4875
2867.34368	5473.3875
2869.85393	5473.1875
2872.36264	5469.3875
2874.8698	5469.2875
2877.37543	5468.9875
2879.87952	5478.3875
2882.38207	5483.7875
2884.88308	5466.4875
2887.38256	5483.2875
2889.88051	5480.9875
2892.37692	5470.7875
2894.8718	5479.6875
2897.36515	5490.5875
2899.85698	5479.8875
2902.34727	5492.6875
2904.83604	5489.6875
2907.32328	5492.6875
2909.809	5510.0875
2912.29319	5514.7875
2914.77587	5522.4875
2917.25702	5500.8875
2919.73665	5505.2875
2922.21476	5501.8875
2924.69136	5511.0875
2927.16644	5519.7875
2929.64	5492.1875
2932.11205	5493.3875
2934.58258	5482.2875
2937.05161	5474.2875
2939.51912	5481.6875
2941.98513	5446.9875
2944.44962	5453.6875
2946.91261	5410.8875
2949.37409	5409.6875
2951.83407	5412.6875
2954.29254	5402.8875
2956.74951	5400.9875
2959.20498	5383.2875
2961.65895	5347.6875
2964.11142	5366.6875
2966.56239	5335.7875
2969.01186	5336.6875
2971.45984	5328.4875
2973.90632	5297.5875
2976.35131	5279.8875
2978.7948	5284.7875
2981.23681	5265.9875
2983.67732	5246.7875
2986.11635	5234.8875
2988.55388	5223.1875
2990.98993	5222.9875
2993.4245	5197.9875
2995.85758	5191.0875
2998.28917	5159.2875
3000.71928	5181.6875
3003.14791	5173.5875
3005.57506	5152.2875
3008.00073	5145.0875
3010.42493	5143.3875
3012.84764	5131.5875
3015.26888	5150.3875
3017.68865	5116.2875
3020.10694	5120.2875
3022.52376	5105.5875
3024.9391	5098.4875
3027.35298	5108.6875
3029.76539	5090.9875
3032.17632	5069.6875
3034.5858	5061.6875
3036.9938	5057.4875
3039.40034	5070.8875
3041.80542	5046.0875
3044.20903	5033.4875
3046.61118	5031.3875
3049.01187	5014.2875
3051.4111	5027.6875
3053.80888	5011.4875
3056.20519	5018.3875
3058.60005	5004.4875
3060.99345	4994.9875
3063.3854	4974.3875
3065.7759	4988.9875
3068.16494	4967.0875
3070.55254	4959.0875
3072.93868	4945.3875
3075.32338	4937.6875
3077.70662	4914.3875
3080.08842	4928.6875
3082.46878	4904.8875
3084.84769	4908.3875
3087.22515	4897.5875
3089.60118	4914.6875
3091.97576	4901.1875
3094.3489	4893.7875
3096.72061	4914.4875
3099.09087	4892.9875
3101.4597	4898.9875
3103.82709	4893.0875
3106.19305	4883.3875
3108.55757	4886.2875
3110.92066	4861.1875
3113.28232	4862.8875
3115.64255	4857.2875
3118.00134	4858.7875
3120.35871	4836.1875
3122.71466	4838.3875
3125.06917	4830.1875
3127.42226	4825.0875
3129.77393	4827.3875
3132.12417	4825.2875
3134.47299	4828.5875
3136.82039	4826.4875
3139.16636	4845.4875
3141.51092	4843.8875
3143.85406	4836.9875
3146.19579	4839.7875
3148.53609	4843.8875
3150.87499	4824.3875
3153.21246	4845.4875
3155.54853	4878.0875
3157.88318	4859.9875
3160.21642	4851.2875
3162.54826	4861.7875
3164.87868	4857.8875
3167.2077	4856.6875
3169.5353	4863.4875
3171.86151	4856.9875
3174.18631	4851.7875
3176.5097	4833.1875
3178.83169	4850.1875
3181.15228	4846.9875
3183.47147	4841.4875
3185.78926	4838.5875
3188.10565	4835.9875
3190.42065	4825.6875
3192.73424	4836.9875
3195.04645	4833.1875
3197.35725	4841.3875
3199.66667	4833.7875
3201.97469	4854.2875
3204.28132	4827.8875
3206.58656	4862.8875
3208.8904	4861.4875
3211.19287	4854.7875
3213.49394	4857.1875
3215.79363	4847.3875
3218.09193	4861.5875
3220.38884	4850.6875
3222.68438	4850.5875
3224.97853	4858.3875
3227.2713	4838.2875
3229.56269	4826.2875
3231.8527	4840.9875
3234.14133	4805.9875
3236.42858	4830.8875
3238.71446	4826.7875
3240.99896	4805.9875
3243.28209	4816.2875
3245.56384	4796.2875
3247.84423	4821.1875
3250.12324	4793.3875
3252.40088	4804.2875
3254.67715	4795.0875
3256.95205	4793.0875
3259.22558	4778.6875
3261.49775	4775.0875
3263.76855	4764.4875
3266.03799	4748.0875
3268.30606	4743.0875
3270.57277	4727.8875
3272.83812	4724.2875
3275.10211	4712.8875
3277.36474	4720.5875
3279.62601	4713.6875
3281.88593	4706.5875
3284.14448	4720.9875
3286.40168	4722.9875
3288.65753	4708.3875
3290.91202	4697.1875
3293.16516	4676.6875
3295.41695	4677.8875
3297.66738	4661.8875
3299.91647	4635.4875
3302.16421	4617.5875
3304.4106	4589.1875
3306.65564	4567.3875
3308.89933	4551.1875
3311.14169	4534.8875
3313.38269	4485.6875
3315.62236	4447.9875
3317.86068	4424.9875
3320.09766	4388.2875
3322.3333	4355.2875
3324.5676	4375.2875
3326.80056	4314.1875
3329.03219	4274.1875
3331.26248	2.0875
3333.49143	-0.1125
3335.71905	-0.3125
