Data from AgNPs_FTO_APTES_UA_5um_CRN_0.1mM_R6G_10uM_NaF_0.1M_Addition_RamanShift__11__13-09-49-092.txt Node

Date: Tue Dec 21 13:09:49 GMT 2021
User: TCL
Spectrometer: QEP01345
Trigger mode: 4
Integration Time (sec): 7.000000E0
Scans to average: 10
Electric dark correction enabled: true
Nonlinearity correction enabled: false
Boxcar width: 0
XAxis mode: Raman Shifts
Number of Pixels in Spectrum: 1044
>>>>>Begin Spectral Data<<<<<
46.04893	-0.8875
50.45542	-0.5875
54.85868	-0.2875
59.25871	1.0125
63.6555	38.8125
68.04907	42.9125
72.43941	44.1125
76.82654	43.8125
81.21044	48.3125
85.59113	51.0125
89.96862	51.5125
94.34289	54.7125
98.71396	49.8125
103.08183	57.5125
107.4465	60.3125
111.80798	60.9125
116.16626	59.7125
120.52136	62.5125
124.87327	66.5125
129.222	65.8125
133.56755	69.6125
137.90993	80.2125
142.24913	79.2125
146.58517	93.2125
150.91804	103.8125
155.24774	124.0125
159.57429	151.9125
163.89768	192.0125
168.21792	251.0125
172.53501	340.5125
176.84895	469.3125
181.15975	661.1125
185.46741	927.5125
189.77193	1271.4125
194.07331	1709.8125
198.37157	2197.5125
202.6667	2729.7125
206.9587	3281.2125
211.24758	3819.1125
215.53334	4343.3125
219.81599	4894.7125
224.09553	5512.4125
228.37195	6181.5125
232.64527	6898.7125
236.91549	7669.8125
241.18261	8449.4125
245.44663	9184.5125
249.70755	9810.6125
253.96539	10352.3125
258.22014	10818.6125
262.4718	11118.4125
266.72039	11356.0125
270.96589	11390.7125
275.20832	11376.3125
279.44768	11278.6125
283.68397	11145.2125
287.91719	11048.3125
292.14735	11001.0125
296.37445	10973.6125
300.59849	10959.0125
304.81948	10998.6125
309.03742	10975.8125
313.25231	10945.2125
317.46415	10743.9125
321.67296	10507.5125
325.87872	10236.5125
330.08145	10072.4125
334.28114	10020.9125
338.47781	10057.2125
342.67145	10168.0125
346.86207	10283.1125
351.04966	10429.3125
355.23424	10583.8125
359.4158	10709.1125
363.59435	10819.1125
367.76989	10878.8125
371.94243	10914.3125
376.11196	10872.8125
380.27849	10883.2125
384.44203	10940.5125
388.60257	11011.5125
392.76012	11144.6125
396.91468	11336.9125
401.06626	11545.8125
405.21485	11729.7125
409.36047	11691.9125
413.50311	11540.2125
417.64277	11404.7125
421.77947	11360.5125
425.9132	11401.1125
430.04396	11437.6125
434.17176	11489.2125
438.2966	11564.3125
442.41849	11633.3125
446.53742	11848.0125
450.6534	12080.6125
454.76644	12241.5125
458.87653	12310.3125
462.98368	12277.3125
467.08789	12245.7125
471.18916	12141.0125
475.2875	12050.7125
479.38291	11958.4125
483.4754	11920.2125
487.56496	11849.3125
491.6516	11743.9125
495.73531	11623.7125
499.81612	11544.0125
503.89401	11557.5125
507.96899	11593.7125
512.04106	11567.2125
516.11023	11473.0125
520.1765	11358.2125
524.23987	11244.6125
528.30034	11165.4125
532.35792	11055.4125
536.41261	10936.7125
540.46441	10844.2125
544.51333	10846.1125
548.55936	10951.1125
552.60252	11155.1125
556.64279	11372.8125
560.6802	11516.1125
564.71473	11612.2125
568.7464	11820.1125
572.7752	12187.1125
576.80114	12632.2125
580.82422	13062.2125
584.84444	13568.0125
588.86181	13929.0125
592.87633	14227.3125
596.888	14193.6125
600.89682	13810.6125
604.9028	13562.6125
608.90594	14173.1125
612.90624	14963.4125
616.90371	14048.0125
620.89834	12031.6125
624.89015	11082.7125
628.87913	11004.2125
632.86528	11170.2125
636.84862	11286.7125
640.82913	11126.3125
644.80683	10821.1125
648.78172	10619.0125
652.75379	10573.0125
656.72306	10666.7125
660.68952	10791.5125
664.65319	10790.4125
668.61405	10703.8125
672.57211	10668.6125
676.52738	10743.9125
680.47986	10772.3125
684.42955	10734.9125
688.37646	10667.8125
692.32058	10638.7125
696.26192	10677.4125
700.20048	10781.3125
704.13626	10880.4125
708.06928	10966.3125
711.99952	10935.5125
715.927	10881.7125
719.85171	10844.0125
723.77365	10774.7125
727.69284	10640.1125
731.60928	10480.5125
735.52295	10431.1125
739.43388	10423.9125
743.34206	10412.1125
747.24749	10510.6125
751.15017	10573.3125
755.05012	10747.5125
758.94733	11055.4125
762.8418	11627.5125
766.73354	12468.8125
770.62254	13303.4125
774.50882	13423.0125
778.39237	12834.3125
782.27321	11958.0125
786.15132	11188.0125
790.02671	10698.8125
793.89938	10437.5125
797.76935	10287.2125
801.6366	10244.2125
805.50115	10188.7125
809.36299	10143.6125
813.22213	10082.1125
817.07857	10044.8125
820.93231	10004.9125
824.78336	9963.9125
828.63172	9913.6125
832.47738	9899.1125
836.32036	9864.6125
840.16066	9840.3125
843.99827	9799.9125
847.8332	9789.4125
851.66546	9782.5125
855.49504	9808.1125
859.32195	9799.4125
863.1462	9779.6125
866.96777	9757.6125
870.78668	9747.5125
874.60293	9756.3125
878.41652	9750.4125
882.22745	9758.8125
886.03573	9799.4125
889.84136	9842.2125
893.64433	9822.9125
897.44466	9788.0125
901.24235	9779.7125
905.0374	9718.9125
908.8298	9708.3125
912.61957	9713.4125
916.40671	9799.4125
920.19121	9931.2125
923.97308	10045.2125
927.75233	10085.2125
931.52895	9994.6125
935.30295	9825.3125
939.07433	9607.9125
942.84309	9441.7125
946.60924	9327.2125
950.37278	9268.1125
954.13371	9249.0125
957.89203	9229.9125
961.64774	9232.1125
965.40086	9238.2125
969.15137	9201.0125
972.89929	9142.7125
976.64461	9111.5125
980.38733	9059.9125
984.12747	9073.4125
987.86502	9073.0125
991.59999	9089.3125
995.33237	9131.6125
999.06217	9236.8125
1002.78939	9384.3125
1006.51404	9526.6125
1010.23611	9712.4125
1013.95561	9812.7125
1017.67255	9851.5125
1021.38692	9815.7125
1025.09872	9689.7125
1028.80796	9548.0125
1032.51465	9481.2125
1036.21877	9486.0125
1039.92035	9587.8125
1043.61937	9627.2125
1047.31584	9701.7125
1051.00976	9750.6125
1054.70114	9816.0125
1058.38998	9835.5125
1062.07627	9942.1125
1065.76003	10055.7125
1069.44126	10241.1125
1073.11995	10451.9125
1076.79611	10606.7125
1080.46974	10673.3125
1084.14085	10675.4125
1087.80943	10744.0125
1091.47549	10852.5125
1095.13903	10943.1125
1098.80005	10856.7125
1102.45857	10556.9125
1106.11456	10232.6125
1109.76805	10022.7125
1113.41903	9942.4125
1117.06751	9968.4125
1120.71348	10098.5125
1124.35696	10233.0125
1127.99793	10389.1125
1131.63641	10512.4125
1135.2724	10486.5125
1138.90589	10438.5125
1142.5369	10430.8125
1146.16542	10479.9125
1149.79145	10554.5125
1153.415	10659.6125
1157.03607	10765.0125
1160.65467	10976.7125
1164.27079	11399.1125
1167.88443	11916.2125
1171.49561	12592.7125
1175.10432	13353.7125
1178.71056	14320.4125
1182.31434	15210.2125
1185.91565	15750.0125
1189.51451	15849.7125
1193.11091	15634.3125
1196.70485	15085.8125
1200.29634	14465.2125
1203.88538	13914.8125
1207.47197	13582.4125
1211.05612	13298.5125
1214.63782	13040.3125
1218.21708	12708.4125
1221.79391	12357.2125
1225.36829	12063.9125
1228.94024	11957.6125
1232.50976	11857.9125
1236.07685	11771.0125
1239.6415	11703.7125
1243.20374	11692.2125
1246.76355	11720.6125
1250.32093	11861.8125
1253.8759	12029.1125
1257.42845	12365.2125
1260.97859	12737.4125
1264.52631	13119.0125
1268.07163	13491.8125
1271.61453	13827.6125
1275.15503	14188.8125
1278.69312	14602.0125
1282.22882	15060.6125
1285.76211	15538.4125
1289.29301	16102.7125
1292.82151	16715.4125
1296.34761	17351.5125
1299.87133	18093.9125
1303.39266	18891.4125
1306.9116	19614.0125
1310.42815	20235.8125
1313.94233	20572.3125
1317.45412	20499.2125
1320.96354	20185.3125
1324.47058	19968.1125
1327.97525	19875.9125
1331.47754	19810.5125
1334.97747	19788.3125
1338.47502	19749.4125
1341.97022	19693.5125
1345.46305	19631.9125
1348.95352	19593.3125
1352.44163	19521.4125
1355.92738	19661.7125
1359.41078	20095.7125
1362.89183	20660.1125
1366.37053	20564.4125
1369.84688	19453.4125
1373.32088	17720.8125
1376.79254	16292.4125
1380.26186	15492.9125
1383.72883	15223.6125
1387.19347	14984.1125
1390.65578	14760.7125
1394.11575	14591.8125
1397.57339	14579.8125
1401.0287	14658.7125
1404.48168	14727.3125
1407.93234	14619.4125
1411.38068	14378.2125
1414.82669	13966.7125
1418.27039	13496.4125
1421.71177	13000.6125
1425.15083	12586.9125
1428.58758	12352.6125
1432.02203	12343.2125
1435.45416	12512.0125
1438.88399	12746.7125
1442.31151	12907.3125
1445.73673	13124.2125
1449.15965	13327.2125
1452.58027	13505.9125
1455.9986	13609.7125
1459.41463	13762.8125
1462.82837	13991.1125
1466.23982	14271.0125
1469.64898	14535.6125
1473.05586	14730.5125
1476.46045	14838.4125
1479.86276	14894.1125
1483.26279	14964.1125
1486.66054	15076.2125
1490.05602	15361.8125
1493.44922	15754.8125
1496.84016	16268.0125
1500.22882	16899.6125
1503.61521	17584.2125
1506.99934	18257.6125
1510.38121	18674.7125
1513.76081	18605.5125
1517.13816	18102.8125
1520.51324	17442.1125
1523.88607	16841.1125
1527.25665	16456.3125
1530.62498	16173.8125
1533.99105	15894.1125
1537.35488	15555.0125
1540.71647	15075.5125
1544.07581	14605.4125
1547.4329	14141.6125
1550.78776	13716.7125
1554.14038	13491.7125
1557.49077	13410.2125
1560.83892	13460.7125
1564.18484	13539.4125
1567.52853	13711.0125
1570.86999	13852.6125
1574.20922	14064.9125
1577.54624	14181.7125
1580.88103	14096.3125
1584.2136	13964.3125
1587.54395	14004.4125
1590.87208	14367.3125
1594.19801	14939.9125
1597.52172	15613.1125
1600.84321	15881.0125
1604.16251	15379.7125
1607.47959	14411.5125
1610.79447	13374.7125
1614.10715	12412.3125
1617.41763	11571.2125
1620.7259	10956.1125
1624.03199	10587.1125
1627.33587	10472.4125
1630.63757	10634.5125
1633.93707	11139.0125
1637.23439	12035.0125
1640.52951	13439.9125
1643.82246	15311.4125
1647.11321	17146.4125
1650.40179	18174.1125
1653.68819	17737.9125
1656.97241	16073.3125
1660.25446	13930.5125
1663.53433	12042.3125
1666.81203	10664.0125
1670.08756	9795.1125
1673.36092	9193.2125
1676.63211	8843.2125
1679.90115	8619.1125
1683.16801	8422.7125
1686.43272	8306.6125
1689.69527	8197.3125
1692.95567	8124.4125
1696.2139	8092.2125
1699.46999	8063.7125
1702.72392	8005.8125
1705.97571	7975.6125
1709.22535	7947.1125
1712.47284	7882.2125
1715.71819	7874.9125
1718.96139	7835.4125
1722.20246	7784.0125
1725.44139	7744.1125
1728.67818	7728.5125
1731.91284	7683.9125
1735.14537	7637.8125
1738.37576	7579.3125
1741.60403	7547.0125
1744.83017	7525.3125
1748.05418	7506.5125
1751.27607	7519.9125
1754.49584	7530.0125
1757.71349	7559.9125
1760.92903	7540.2125
1764.14244	7533.4125
1767.35375	7526.2125
1770.56294	7467.6125
1773.77002	7420.3125
1776.97499	7381.2125
1780.17785	7335.4125
1783.37861	7317.2125
1786.57727	7283.0125
1789.77382	7271.2125
1792.96828	7224.5125
1796.16064	7197.8125
1799.3509	7170.9125
1802.53907	7168.8125
1805.72514	7126.7125
1808.90913	7125.0125
1812.09102	7101.6125
1815.27083	7052.7125
1818.44856	7049.8125
1821.6242	7039.4125
1824.79776	7041.5125
1827.96924	7035.2125
1831.13864	7014.9125
1834.30597	7020.7125
1837.47122	6972.5125
1840.6344	7002.8125
1843.7955	6995.8125
1846.95454	7004.7125
1850.11151	6976.6125
1853.26642	6948.7125
1856.41926	6976.9125
1859.57004	6978.1125
1862.71876	6932.1125
1865.86542	6950.1125
1869.01003	6930.1125
1872.15258	6917.6125
1875.29308	6882.1125
1878.43152	6902.2125
1881.56792	6870.1125
1884.70227	6838.7125
1887.83457	6841.4125
1890.96482	6836.8125
1894.09304	6798.2125
1897.21921	6813.8125
1900.34335	6792.0125
1903.46544	6792.0125
1906.58551	6772.3125
1909.70353	6758.4125
1912.81953	6740.8125
1915.93349	6701.5125
1919.04543	6708.5125
1922.15534	6689.0125
1925.26322	6665.0125
1928.36908	6632.8125
1931.47292	6624.3125
1934.57473	6598.5125
1937.67453	6594.3125
1940.77232	6580.9125
1943.86808	6570.5125
1946.96184	6550.2125
1950.05358	6519.3125
1953.14331	6511.7125
1956.23103	6485.7125
1959.31675	6449.9125
1962.40046	6427.4125
1965.48217	6414.5125
1968.56188	6398.6125
1971.63959	6365.8125
1974.7153	6344.5125
1977.78901	6310.4125
1980.86073	6288.1125
1983.93046	6270.4125
1986.99819	6245.8125
1990.06394	6220.3125
1993.1277	6213.4125
1996.18947	6167.1125
1999.24925	6155.4125
2002.30706	6135.1125
2005.36288	6122.0125
2008.41672	6108.6125
2011.46859	6085.7125
2014.51848	6043.7125
2017.56639	6049.4125
2020.61233	6004.4125
2023.6563	5989.8125
2026.6983	5990.9125
2029.73833	5975.9125
2032.7764	5960.1125
2035.8125	5925.4125
2038.84664	5926.0125
2041.87881	5913.9125
2044.90903	5910.4125
2047.93729	5884.9125
2050.96359	5871.8125
2053.98794	5894.4125
2057.01034	5850.2125
2060.03078	5852.8125
2063.04927	5859.3125
2066.06582	5833.9125
2069.08042	5823.4125
2072.09307	5835.9125
2075.10378	5811.5125
2078.11255	5825.5125
2081.11938	5836.2125
2084.12426	5819.4125
2087.12722	5819.4125
2090.12824	5789.6125
2093.12732	5809.4125
2096.12447	5793.7125
2099.11969	5805.8125
2102.11299	5782.8125
2105.10435	5789.0125
2108.09379	5800.5125
2111.08131	5796.4125
2114.0669	5770.7125
2117.05057	5794.4125
2120.03233	5798.7125
2123.01216	5786.6125
2125.99008	5793.5125
2128.96609	5814.0125
2131.94018	5807.8125
2134.91236	5793.1125
2137.88263	5795.2125
2140.851	5792.8125
2143.81746	5776.8125
2146.78201	5791.5125
2149.74466	5789.5125
2152.7054	5774.9125
2155.66425	5771.8125
2158.6212	5761.2125
2161.57625	5762.2125
2164.52941	5754.4125
2167.48067	5750.7125
2170.43004	5754.1125
2173.37752	5745.6125
2176.32311	5742.9125
2179.26681	5731.1125
2182.20863	5738.3125
2185.14856	5744.9125
2188.08661	5728.2125
2191.02278	5729.5125
2193.95707	5717.1125
2196.88948	5717.9125
2199.82001	5703.3125
2202.74867	5703.6125
2205.67545	5679.5125
2208.60037	5674.8125
2211.52341	5661.9125
2214.44458	5637.6125
2217.36388	5645.6125
2220.28132	5617.4125
2223.1969	5614.3125
2226.11061	5585.8125
2229.02246	5594.3125
2231.93245	5579.1125
2234.84058	5579.6125
2237.74686	5576.3125
2240.65128	5562.5125
2243.55385	5550.6125
2246.45456	5546.7125
2249.35343	5517.7125
2252.25044	5505.3125
2255.14561	5517.2125
2258.03893	5504.6125
2260.93041	5496.1125
2263.82004	5471.7125
2266.70783	5458.0125
2269.59378	5413.4125
2272.4779	5421.6125
2275.36017	5405.0125
2278.24061	5401.8125
2281.11922	5385.3125
2283.996	5372.3125
2286.87094	5348.2125
2289.74405	5332.0125
2292.61534	5331.6125
2295.4848	5340.4125
2298.35243	5317.6125
2301.21824	5329.3125
2304.08223	5298.8125
2306.94439	5295.7125
2309.80474	5276.2125
2312.66327	5273.4125
2315.51999	5288.4125
2318.37489	5266.0125
2321.22797	5248.9125
2324.07925	5249.5125
2326.92871	5242.2125
2329.77637	5229.9125
2332.62222	5236.2125
2335.46626	5237.2125
2338.3085	5203.6125
2341.14893	5197.8125
2343.98756	5210.2125
2346.8244	5222.6125
2349.65943	5207.0125
2352.49267	5194.6125
2355.32411	5188.1125
2358.15376	5202.0125
2360.98161	5194.5125
2363.80768	5198.5125
2366.63195	5179.6125
2369.45444	5177.5125
2372.27514	5176.3125
2375.09405	5154.0125
2377.91118	5140.8125
2380.72652	5143.9125
2383.54009	5124.9125
2386.35187	5115.6125
2389.16188	5101.6125
2391.97011	5084.0125
2394.77657	5076.6125
2397.58125	5077.6125
2400.38416	5045.3125
2403.18529	5043.7125
2405.98466	5027.4125
2408.78226	5032.7125
2411.57809	5018.8125
2414.37216	5020.0125
2417.16446	4991.5125
2419.955	4996.9125
2422.74378	4998.4125
2425.5308	4976.6125
2428.31606	4998.9125
2431.09956	4976.1125
2433.88131	4974.5125
2436.6613	4969.9125
2439.43954	4961.4125
2442.21603	4950.7125
2444.99077	4945.1125
2447.76377	4947.1125
2450.53501	4945.6125
2453.30451	4934.9125
2456.07226	4943.6125
2458.83827	4942.8125
2461.60254	4932.3125
2464.36507	4937.9125
2467.12586	4923.4125
2469.88492	4927.5125
2472.64224	4920.7125
2475.39782	4920.8125
2478.15167	4925.0125
2480.90379	4906.4125
2483.65417	4905.8125
2486.40283	4897.2125
2489.14976	4895.2125
2491.89497	4886.3125
2494.63845	4898.5125
2497.3802	4879.1125
2500.12024	4891.6125
2502.85855	4888.6125
2505.59514	4889.6125
2508.33002	4860.0125
2511.06318	4852.3125
2513.79462	4852.2125
2516.52435	4852.8125
2519.25237	4842.7125
2521.97867	4826.2125
2524.70327	4810.1125
2527.42616	4823.9125
2530.14734	4814.3125
2532.86681	4809.4125
2535.58458	4804.6125
2538.30065	4776.1125
2541.01501	4774.5125
2543.72768	4768.7125
2546.43864	4756.8125
2549.14791	4762.8125
2551.85548	4749.5125
2554.56136	4748.9125
2557.26554	4738.5125
2559.96803	4725.4125
2562.66883	4724.2125
2565.36794	4707.6125
2568.06536	4710.4125
2570.7611	4718.1125
2573.45514	4693.3125
2576.14751	4698.2125
2578.83819	4691.1125
2581.52719	4681.7125
2584.21451	4690.2125
2586.90015	4670.0125
2589.58411	4657.4125
2592.2664	4656.0125
2594.94701	4638.4125
2597.62594	4650.6125
2600.30321	4622.2125
2602.9788	4617.8125
2605.65273	4600.4125
2608.32498	4615.3125
2610.99557	4617.7125
2613.66449	4613.3125
2616.33175	4592.2125
2618.99734	4586.7125
2621.66128	4578.3125
2624.32355	4571.6125
2626.98416	4562.0125
2629.64311	4569.1125
2632.30041	4545.5125
2634.95605	4576.5125
2637.61004	4545.6125
2640.26238	4539.5125
2642.91306	4544.7125
2645.56209	4530.6125
2648.20948	4532.7125
2650.85521	4528.4125
2653.4993	4539.8125
2656.14175	4528.9125
2658.78255	4523.0125
2661.42171	4519.6125
2664.05923	4527.1125
2666.6951	4531.7125
2669.32934	4522.8125
2671.96194	4537.0125
2674.59291	4538.1125
2677.22224	4543.5125
2679.84993	4539.2125
2682.476	4515.3125
2685.10043	4515.0125
2687.72324	4520.8125
2690.34441	4533.7125
2692.96396	4521.5125
2695.58188	4531.9125
2698.19818	4510.2125
2700.81285	4516.0125
2703.4259	4544.8125
2706.03733	4566.1125
2708.64714	4543.8125
2711.25533	4526.1125
2713.86191	4520.7125
2716.46687	4513.3125
2719.07021	4517.6125
2721.67194	4520.3125
2724.27206	4520.4125
2726.87057	4526.2125
2729.46747	4520.9125
2732.06276	4520.7125
2734.65644	4503.6125
2737.24852	4506.0125
2739.83899	4497.2125
2742.42786	4508.8125
2745.01513	4486.6125
2747.60079	4497.4125
2750.18486	4470.6125
2752.76733	4474.9125
2755.3482	4470.4125
2757.92747	4463.9125
2760.50515	4464.0125
2763.08123	4453.5125
2765.65573	4444.9125
2768.22863	4456.8125
2770.79994	4448.7125
2773.36967	4451.0125
2775.9378	4428.5125
2778.50435	4438.5125
2781.06932	4421.0125
2783.6327	4434.0125
2786.1945	4411.9125
2788.75471	4426.0125
2791.31335	4413.4125
2793.87041	4404.4125
2796.42589	4384.6125
2798.97979	4382.5125
2801.53212	4372.5125
2804.08288	4378.4125
2806.63206	4367.6125
2809.17967	4356.7125
2811.72571	4340.5125
2814.27018	4362.3125
2816.81308	4335.3125
2819.35442	4335.0125
2821.89419	4329.5125
2824.43239	4328.8125
2826.96904	4327.2125
2829.50412	4330.0125
2832.03763	4313.8125
2834.56959	4329.2125
2837.1	4318.1125
2839.62884	4326.5125
2842.15613	4333.3125
2844.68186	4339.8125
2847.20604	4336.3125
2849.72867	4347.3125
2852.24974	4330.3125
2854.76927	4351.9125
2857.28724	4353.4125
2859.80367	4336.9125
2862.31855	4315.3125
2864.83189	4321.3125
2867.34368	4319.5125
2869.85393	4308.4125
2872.36264	4288.9125
2874.8698	4291.1125
2877.37543	4285.1125
2879.87952	4279.8125
2882.38207	4290.3125
2884.88308	4285.7125
2887.38256	4287.3125
2889.88051	4283.9125
2892.37692	4281.8125
2894.8718	4275.0125
2897.36515	4282.0125
2899.85698	4280.9125
2902.34727	4282.9125
2904.83604	4284.9125
2907.32328	4298.1125
2909.809	4290.7125
2912.29319	4309.1125
2914.77587	4316.1125
2917.25702	4299.5125
2919.73665	4306.8125
2922.21476	4302.8125
2924.69136	4320.2125
2927.16644	4326.6125
2929.64	4319.0125
2932.11205	4298.8125
2934.58258	4280.5125
2937.05161	4306.5125
2939.51912	4306.7125
2941.98513	4287.9125
2944.44962	4266.8125
2946.91261	4254.6125
2949.37409	4260.3125
2951.83407	4258.1125
2954.29254	4243.8125
2956.74951	4238.7125
2959.20498	4234.6125
2961.65895	4223.9125
2964.11142	4210.7125
2966.56239	4183.5125
2969.01186	4176.6125
2971.45984	4164.4125
2973.90632	4159.1125
2976.35131	4148.6125
2978.7948	4120.1125
2981.23681	4124.2125
2983.67732	4095.2125
2986.11635	4095.6125
2988.55388	4088.3125
2990.98993	4076.3125
2993.4245	4073.2125
2995.85758	4054.6125
2998.28917	4053.9125
3000.71928	4036.2125
3003.14791	4018.9125
3005.57506	4033.3125
3008.00073	4017.2125
3010.42493	4008.3125
3012.84764	4002.3125
3015.26888	4009.2125
3017.68865	3989.3125
3020.10694	3975.4125
3022.52376	3968.6125
3024.9391	3965.9125
3027.35298	3959.8125
3029.76539	3953.1125
3032.17632	3951.6125
3034.5858	3922.0125
3036.9938	3924.8125
3039.40034	3898.0125
3041.80542	3921.7125
3044.20903	3901.4125
3046.61118	3893.5125
3049.01187	3877.1125
3051.4111	3880.3125
3053.80888	3867.2125
3056.20519	3866.1125
3058.60005	3858.4125
3060.99345	3864.0125
3063.3854	3851.0125
3065.7759	3840.8125
3068.16494	3831.3125
3070.55254	3811.6125
3072.93868	3810.0125
3075.32338	3813.6125
3077.70662	3801.6125
3080.08842	3795.6125
3082.46878	3793.3125
3084.84769	3779.4125
3087.22515	3783.1125
3089.60118	3771.3125
3091.97576	3771.4125
3094.3489	3761.2125
3096.72061	3769.6125
3099.09087	3767.8125
3101.4597	3768.2125
3103.82709	3758.7125
3106.19305	3769.9125
3108.55757	3770.7125
3110.92066	3757.5125
3113.28232	3749.3125
3115.64255	3731.2125
3118.00134	3726.0125
3120.35871	3725.7125
3122.71466	3715.7125
3125.06917	3710.6125
3127.42226	3703.3125
3129.77393	3719.5125
3132.12417	3702.3125
3134.47299	3716.1125
3136.82039	3703.2125
3139.16636	3706.5125
3141.51092	3711.3125
3143.85406	3693.7125
3146.19579	3717.2125
3148.53609	3717.9125
3150.87499	3725.4125
3153.21246	3712.9125
3155.54853	3729.5125
3157.88318	3731.1125
3160.21642	3729.8125
3162.54826	3718.2125
3164.87868	3720.3125
3167.2077	3714.6125
3169.5353	3718.9125
3171.86151	3713.4125
3174.18631	3717.0125
3176.5097	3699.7125
3178.83169	3712.7125
3181.15228	3705.4125
3183.47147	3704.5125
3185.78926	3695.2125
3188.10565	3687.4125
3190.42065	3705.6125
3192.73424	3687.8125
3195.04645	3686.9125
3197.35725	3698.2125
3199.66667	3690.8125
3201.97469	3715.5125
3204.28132	3699.2125
3206.58656	3710.7125
3208.8904	3686.1125
3211.19287	3693.0125
3213.49394	3694.6125
3215.79363	3694.7125
3218.09193	3708.2125
3220.38884	3705.9125
3222.68438	3707.1125
3224.97853	3696.9125
3227.2713	3687.0125
3229.56269	3683.7125
3231.8527	3689.7125
3234.14133	3677.1125
3236.42858	3675.0125
3238.71446	3675.2125
3240.99896	3668.1125
3243.28209	3667.1125
3245.56384	3650.1125
3247.84423	3665.7125
3250.12324	3645.7125
3252.40088	3665.5125
3254.67715	3672.7125
3256.95205	3640.8125
3259.22558	3643.3125
3261.49775	3609.2125
3263.76855	3614.4125
3266.03799	3609.1125
3268.30606	3594.6125
3270.57277	3603.1125
3272.83812	3589.6125
3275.10211	3583.0125
3277.36474	3585.2125
3279.62601	3588.6125
3281.88593	3578.8125
3284.14448	3572.5125
3286.40168	3582.4125
3288.65753	3569.9125
3290.91202	3568.7125
3293.16516	3550.1125
3295.41695	3550.4125
3297.66738	3528.0125
3299.91647	3500.5125
3302.16421	3482.2125
3304.4106	3479.2125
3306.65564	3455.1125
3308.89933	3441.8125
3311.14169	3428.7125
3313.38269	3403.9125
3315.62236	3371.7125
3317.86068	3348.7125
3320.09766	3309.2125
3322.3333	3284.7125
3324.5676	3287.1125
3326.80056	3246.4125
3329.03219	3223.6125
3331.26248	1.3125
3333.49143	0.3125
3335.71905	-0.4875
