Data from AgNPs_FTO_APTES_UA_50um_CRN_0.1mM_R6G_10uM_NaF_0.1M_Addition_RamanShift__6__15-09-59-229.txt Node

Date: Tue Dec 21 15:09:59 GMT 2021
User: TCL
Spectrometer: QEP01345
Trigger mode: 4
Integration Time (sec): 7.000000E0
Scans to average: 10
Electric dark correction enabled: true
Nonlinearity correction enabled: false
Boxcar width: 0
XAxis mode: Raman Shifts
Number of Pixels in Spectrum: 1044
>>>>>Begin Spectral Data<<<<<
46.04893	0.775
50.45542	-1.525
54.85868	-0.025
59.25871	-0.425
63.6555	37.175
68.04907	44.375
72.43941	43.475
76.82654	44.675
81.21044	51.175
85.59113	51.875
89.96862	55.775
94.34289	56.775
98.71396	52.575
103.08183	59.475
107.4465	60.175
111.80798	63.475
116.16626	64.075
120.52136	61.875
124.87327	65.375
129.222	64.575
133.56755	72.175
137.90993	76.475
142.24913	80.175
146.58517	89.875
150.91804	100.275
155.24774	112.775
159.57429	137.975
163.89768	178.975
168.21792	225.675
172.53501	308.275
176.84895	422.475
181.15975	586.475
185.46741	815.275
189.77193	1135.975
194.07331	1506.275
198.37157	1957.175
202.6667	2416.675
206.9587	2898.775
211.24758	3365.075
215.53334	3818.575
219.81599	4311.675
224.09553	4868.675
228.37195	5476.775
232.64527	6140.875
236.91549	6831.975
241.18261	7526.775
245.44663	8143.575
249.70755	8673.275
253.96539	9111.775
258.22014	9471.875
262.4718	9833.175
266.72039	10012.375
270.96589	10113.475
275.20832	10123.475
279.44768	10018.575
283.68397	9919.075
287.91719	9835.775
292.14735	9763.375
296.37445	9776.375
300.59849	9810.275
304.81948	9957.475
309.03742	9958.375
313.25231	9876.275
317.46415	9681.275
321.67296	9412.075
325.87872	9117.375
330.08145	8975.375
334.28114	8958.875
338.47781	9006.575
342.67145	9105.775
346.86207	9244.975
351.04966	9430.075
355.23424	9606.875
359.4158	9820.675
363.59435	9911.675
367.76989	10010.775
371.94243	10039.275
376.11196	10103.375
380.27849	10124.875
384.44203	10151.275
388.60257	10237.175
392.76012	10302.975
396.91468	10412.975
401.06626	10588.375
405.21485	10676.975
409.36047	10609.275
413.50311	10379.775
417.64277	10221.275
421.77947	10111.775
425.9132	10102.475
430.04396	10146.175
434.17176	10186.275
438.2966	10224.875
442.41849	10354.575
446.53742	10557.075
450.6534	10840.175
454.76644	11000.675
458.87653	11042.275
462.98368	11006.375
467.08789	10943.175
471.18916	10853.075
475.2875	10790.675
479.38291	10721.375
483.4754	10640.875
487.56496	10570.175
491.6516	10418.675
495.73531	10289.975
499.81612	10206.975
503.89401	10227.775
507.96899	10260.875
512.04106	10247.875
516.11023	10201.575
520.1765	10141.975
524.23987	10084.275
528.30034	10021.875
532.35792	9941.875
536.41261	9838.075
540.46441	9708.675
544.51333	9692.075
548.55936	9762.275
552.60252	9925.575
556.64279	10172.575
560.6802	10311.575
564.71473	10373.375
568.7464	10524.475
572.7752	10793.775
576.80114	11001.775
580.82422	11139.575
584.84444	11379.975
588.86181	11610.875
592.87633	11860.675
596.888	11844.775
600.89682	11617.375
604.9028	11714.775
608.90594	12686.875
612.90624	14005.775
616.90371	13419.975
620.89834	11115.775
624.89015	9967.275
628.87913	9822.175
632.86528	9986.875
636.84862	10100.575
640.82913	10046.075
644.80683	9758.375
648.78172	9519.475
652.75379	9449.175
656.72306	9501.975
660.68952	9648.875
664.65319	9625.475
668.61405	9418.275
672.57211	9365.075
676.52738	9388.275
680.47986	9415.875
684.42955	9362.275
688.37646	9298.975
692.32058	9271.875
696.26192	9309.975
700.20048	9406.975
704.13626	9445.775
708.06928	9514.775
711.99952	9435.575
715.927	9411.275
719.85171	9426.775
723.77365	9386.175
727.69284	9309.375
731.60928	9222.275
735.52295	9191.475
739.43388	9181.275
743.34206	9190.175
747.24749	9216.075
751.15017	9309.575
755.05012	9436.675
758.94733	9677.275
762.8418	10174.575
766.73354	11047.275
770.62254	11967.375
774.50882	12322.275
778.39237	11826.075
782.27321	10838.775
786.15132	9989.875
790.02671	9443.575
793.89938	9200.775
797.76935	9064.475
801.6366	9042.475
805.50115	8985.775
809.36299	8966.875
813.22213	8924.475
817.07857	8906.575
820.93231	8870.175
824.78336	8801.175
828.63172	8767.175
832.47738	8745.475
836.32036	8727.875
840.16066	8690.275
843.99827	8660.475
847.8332	8635.875
851.66546	8595.775
855.49504	8589.775
859.32195	8604.175
863.1462	8582.975
866.96777	8562.875
870.78668	8559.275
874.60293	8585.675
878.41652	8567.775
882.22745	8619.075
886.03573	8655.075
889.84136	8651.575
893.64433	8619.275
897.44466	8585.275
901.24235	8556.675
905.0374	8480.975
908.8298	8447.275
912.61957	8425.875
916.40671	8466.875
920.19121	8569.175
923.97308	8621.375
927.75233	8623.575
931.52895	8557.175
935.30295	8445.575
939.07433	8320.675
942.84309	8184.175
946.60924	8084.475
950.37278	8012.875
954.13371	8018.575
957.89203	8015.975
961.64774	8023.875
965.40086	7992.875
969.15137	7950.075
972.89929	7915.175
976.64461	7870.375
980.38733	7867.975
984.12747	7860.875
987.86502	7885.775
991.59999	7909.075
995.33237	7931.675
999.06217	8027.875
1002.78939	8161.475
1006.51404	8291.475
1010.23611	8401.875
1013.95561	8505.375
1017.67255	8551.475
1021.38692	8495.175
1025.09872	8370.075
1028.80796	8243.775
1032.51465	8187.675
1036.21877	8180.975
1039.92035	8218.375
1043.61937	8283.075
1047.31584	8298.975
1051.00976	8344.375
1054.70114	8347.175
1058.38998	8377.375
1062.07627	8439.375
1065.76003	8522.275
1069.44126	8625.675
1073.11995	8765.975
1076.79611	8879.075
1080.46974	8924.375
1084.14085	8962.975
1087.80943	9012.375
1091.47549	9111.875
1095.13903	9130.275
1098.80005	9040.075
1102.45857	8814.375
1106.11456	8656.575
1109.76805	8546.975
1113.41903	8553.575
1117.06751	8648.075
1120.71348	8801.075
1124.35696	8990.575
1127.99793	9219.775
1131.63641	9345.675
1135.2724	9302.175
1138.90589	9141.775
1142.5369	9061.875
1146.16542	9042.475
1149.79145	9048.775
1153.415	9054.875
1157.03607	9100.475
1160.65467	9259.275
1164.27079	9589.775
1167.88443	10031.475
1171.49561	10599.575
1175.10432	11417.575
1178.71056	12421.075
1182.31434	13303.675
1185.91565	13682.075
1189.51451	13560.275
1193.11091	13106.775
1196.70485	12574.375
1200.29634	12086.575
1203.88538	11681.275
1207.47197	11350.475
1211.05612	11052.875
1214.63782	10768.375
1218.21708	10462.875
1221.79391	10256.575
1225.36829	10129.575
1228.94024	10032.175
1232.50976	9944.275
1236.07685	9845.675
1239.6415	9766.775
1243.20374	9753.675
1246.76355	9778.575
1250.32093	9893.075
1253.8759	10054.475
1257.42845	10304.675
1260.97859	10557.275
1264.52631	10844.975
1268.07163	11108.375
1271.61453	11337.775
1275.15503	11588.775
1278.69312	11849.475
1282.22882	12111.675
1285.76211	12501.475
1289.29301	12979.475
1292.82151	13576.575
1296.34761	14239.475
1299.87133	14997.975
1303.39266	15775.775
1306.9116	16641.575
1310.42815	17378.475
1313.94233	17846.875
1317.45412	17803.375
1320.96354	17391.775
1324.47058	16926.075
1327.97525	16520.575
1331.47754	16177.575
1334.97747	15919.175
1338.47502	15753.975
1341.97022	15656.975
1345.46305	15603.575
1348.95352	15668.975
1352.44163	15993.375
1355.92738	16551.675
1359.41078	17481.375
1362.89183	18478.275
1366.37053	18522.075
1369.84688	16947.575
1373.32088	14922.575
1376.79254	13483.075
1380.26186	12853.575
1383.72883	12647.475
1387.19347	12503.375
1390.65578	12308.475
1394.11575	12208.775
1397.57339	12198.875
1401.0287	12271.275
1404.48168	12264.875
1407.93234	12151.075
1411.38068	11866.675
1414.82669	11495.675
1418.27039	11088.575
1421.71177	10729.875
1425.15083	10371.575
1428.58758	10180.975
1432.02203	10213.675
1435.45416	10347.575
1438.88399	10595.875
1442.31151	10763.675
1445.73673	10883.475
1449.15965	11031.775
1452.58027	11124.575
1455.9986	11165.575
1459.41463	11245.575
1462.82837	11350.975
1466.23982	11517.875
1469.64898	11719.175
1473.05586	11822.875
1476.46045	11885.275
1479.86276	11877.575
1483.26279	11865.375
1486.66054	11944.175
1490.05602	12125.475
1493.44922	12399.275
1496.84016	12828.175
1500.22882	13425.375
1503.61521	14264.175
1506.99934	15192.575
1510.38121	15933.375
1513.76081	16056.075
1517.13816	15515.975
1520.51324	14576.375
1523.88607	13692.775
1527.25665	13194.675
1530.62498	12906.375
1533.99105	12698.075
1537.35488	12439.475
1540.71647	12134.675
1544.07581	11785.775
1547.4329	11457.375
1550.78776	11172.575
1554.14038	10993.775
1557.49077	10948.675
1560.83892	11014.175
1564.18484	11125.375
1567.52853	11292.775
1570.86999	11507.975
1574.20922	11720.175
1577.54624	11867.575
1580.88103	11759.775
1584.2136	11583.775
1587.54395	11549.375
1590.87208	11782.275
1594.19801	12200.875
1597.52172	12746.175
1600.84321	12961.375
1604.16251	12528.775
1607.47959	11713.475
1610.79447	10869.575
1614.10715	10014.675
1617.41763	9365.775
1620.7259	8879.875
1624.03199	8638.775
1627.33587	8574.875
1630.63757	8739.775
1633.93707	9193.775
1637.23439	9983.475
1640.52951	11161.175
1643.82246	12731.375
1647.11321	14211.775
1650.40179	14907.575
1653.68819	14260.775
1656.97241	12607.375
1660.25446	10805.675
1663.53433	9366.875
1666.81203	8454.675
1670.08756	7872.775
1673.36092	7489.775
1676.63211	7279.075
1679.90115	7118.275
1683.16801	6962.575
1686.43272	6889.975
1689.69527	6815.775
1692.95567	6746.975
1696.2139	6694.775
1699.46999	6645.775
1702.72392	6605.575
1705.97571	6545.975
1709.22535	6471.475
1712.47284	6446.975
1715.71819	6412.675
1718.96139	6369.475
1722.20246	6346.175
1725.44139	6296.475
1728.67818	6259.075
1731.91284	6209.575
1735.14537	6171.775
1738.37576	6140.775
1741.60403	6128.275
1744.83017	6093.275
1748.05418	6087.875
1751.27607	6081.975
1754.49584	6083.375
1757.71349	6093.275
1760.92903	6104.875
1764.14244	6056.775
1767.35375	6068.175
1770.56294	6032.275
1773.77002	5994.475
1776.97499	5942.475
1780.17785	5929.075
1783.37861	5899.075
1786.57727	5895.775
1789.77382	5858.575
1792.96828	5836.575
1796.16064	5821.375
1799.3509	5808.275
1802.53907	5779.375
1805.72514	5790.875
1808.90913	5747.775
1812.09102	5728.675
1815.27083	5715.875
1818.44856	5714.375
1821.6242	5672.575
1824.79776	5656.775
1827.96924	5673.275
1831.13864	5654.575
1834.30597	5653.375
1837.47122	5645.175
1840.6344	5628.175
1843.7955	5626.975
1846.95454	5626.275
1850.11151	5592.675
1853.26642	5612.175
1856.41926	5603.175
1859.57004	5575.575
1862.71876	5570.575
1865.86542	5556.275
1869.01003	5551.775
1872.15258	5537.775
1875.29308	5517.775
1878.43152	5528.375
1881.56792	5513.975
1884.70227	5512.375
1887.83457	5512.975
1890.96482	5476.075
1894.09304	5449.375
1897.21921	5460.975
1900.34335	5442.375
1903.46544	5447.875
1906.58551	5427.875
1909.70353	5429.275
1912.81953	5416.975
1915.93349	5397.175
1919.04543	5397.275
1922.15534	5372.375
1925.26322	5354.575
1928.36908	5334.375
1931.47292	5327.375
1934.57473	5309.075
1937.67453	5299.875
1940.77232	5264.375
1943.86808	5267.275
1946.96184	5236.475
1950.05358	5225.275
1953.14331	5214.375
1956.23103	5176.675
1959.31675	5180.575
1962.40046	5158.275
1965.48217	5148.375
1968.56188	5117.175
1971.63959	5102.875
1974.7153	5108.975
1977.78901	5079.475
1980.86073	5056.775
1983.93046	5028.875
1986.99819	5010.475
1990.06394	4993.575
1993.1277	4992.475
1996.18947	4948.775
1999.24925	4953.675
2002.30706	4936.775
2005.36288	4919.275
2008.41672	4908.275
2011.46859	4873.275
2014.51848	4863.875
2017.56639	4846.975
2020.61233	4830.575
2023.6563	4813.975
2026.6983	4798.075
2029.73833	4795.175
2032.7764	4769.175
2035.8125	4765.975
2038.84664	4760.175
2041.87881	4741.675
2044.90903	4728.975
2047.93729	4715.575
2050.96359	4722.375
2053.98794	4707.675
2057.01034	4694.775
2060.03078	4677.775
2063.04927	4666.375
2066.06582	4666.475
2069.08042	4664.175
2072.09307	4659.575
2075.10378	4656.875
2078.11255	4664.675
2081.11938	4663.575
2084.12426	4659.375
2087.12722	4646.875
2090.12824	4631.375
2093.12732	4631.475
2096.12447	4629.575
2099.11969	4628.075
2102.11299	4634.675
2105.10435	4641.375
2108.09379	4648.375
2111.08131	4642.775
2114.0669	4632.175
2117.05057	4634.475
2120.03233	4627.975
2123.01216	4634.675
2125.99008	4623.975
2128.96609	4617.175
2131.94018	4640.575
2134.91236	4635.175
2137.88263	4616.475
2140.851	4625.675
2143.81746	4624.175
2146.78201	4617.775
2149.74466	4610.375
2152.7054	4609.575
2155.66425	4597.775
2158.6212	4582.275
2161.57625	4594.575
2164.52941	4589.175
2167.48067	4593.775
2170.43004	4573.075
2173.37752	4586.375
2176.32311	4569.475
2179.26681	4559.675
2182.20863	4568.075
2185.14856	4563.375
2188.08661	4578.975
2191.02278	4552.775
2193.95707	4544.375
2196.88948	4538.375
2199.82001	4535.575
2202.74867	4534.775
2205.67545	4526.375
2208.60037	4516.975
2211.52341	4502.475
2214.44458	4499.175
2217.36388	4474.675
2220.28132	4461.875
2223.1969	4448.275
2226.11061	4458.975
2229.02246	4438.875
2231.93245	4434.475
2234.84058	4410.775
2237.74686	4401.775
2240.65128	4406.375
2243.55385	4388.375
2246.45456	4397.775
2249.35343	4378.775
2252.25044	4378.275
2255.14561	4372.575
2258.03893	4368.875
2260.93041	4362.775
2263.82004	4345.275
2266.70783	4349.075
2269.59378	4310.175
2272.4779	4303.275
2275.36017	4301.675
2278.24061	4290.775
2281.11922	4266.575
2283.996	4255.775
2286.87094	4266.075
2289.74405	4227.375
2292.61534	4234.975
2295.4848	4230.575
2298.35243	4222.475
2301.21824	4204.175
2304.08223	4208.275
2306.94439	4190.575
2309.80474	4196.375
2312.66327	4191.475
2315.51999	4180.075
2318.37489	4179.275
2321.22797	4189.275
2324.07925	4169.075
2326.92871	4164.875
2329.77637	4164.675
2332.62222	4146.775
2335.46626	4155.275
2338.3085	4132.475
2341.14893	4127.375
2343.98756	4124.475
2346.8244	4125.375
2349.65943	4104.975
2352.49267	4113.575
2355.32411	4119.275
2358.15376	4107.775
2360.98161	4122.075
2363.80768	4123.575
2366.63195	4122.975
2369.45444	4115.975
2372.27514	4104.775
2375.09405	4078.275
2377.91118	4081.775
2380.72652	4067.175
2383.54009	4070.175
2386.35187	4060.275
2389.16188	4036.175
2391.97011	4015.775
2394.77657	4010.175
2397.58125	3999.575
2400.38416	3990.875
2403.18529	3994.275
2405.98466	3983.375
2408.78226	3980.575
2411.57809	3966.775
2414.37216	3955.075
2417.16446	3968.075
2419.955	3952.275
2422.74378	3926.975
2425.5308	3945.175
2428.31606	3937.975
2431.09956	3943.275
2433.88131	3933.475
2436.6613	3922.775
2439.43954	3919.975
2442.21603	3913.875
2444.99077	3893.875
2447.76377	3906.975
2450.53501	3917.375
2453.30451	3903.775
2456.07226	3912.675
2458.83827	3914.175
2461.60254	3889.575
2464.36507	3891.475
2467.12586	3892.775
2469.88492	3885.075
2472.64224	3887.475
2475.39782	3885.775
2478.15167	3889.075
2480.90379	3879.275
2483.65417	3890.075
2486.40283	3880.875
2489.14976	3872.875
2491.89497	3861.875
2494.63845	3867.875
2497.3802	3886.275
2500.12024	3868.375
2502.85855	3857.275
2505.59514	3859.175
2508.33002	3846.175
2511.06318	3835.375
2513.79462	3819.375
2516.52435	3818.575
2519.25237	3814.175
2521.97867	3813.875
2524.70327	3804.875
2527.42616	3797.475
2530.14734	3808.575
2532.86681	3785.575
2535.58458	3772.775
2538.30065	3778.175
2541.01501	3770.875
2543.72768	3773.175
2546.43864	3769.375
2549.14791	3759.775
2551.85548	3749.175
2554.56136	3743.075
2557.26554	3732.775
2559.96803	3727.775
2562.66883	3723.075
2565.36794	3718.375
2568.06536	3726.375
2570.7611	3710.375
2573.45514	3712.975
2576.14751	3706.875
2578.83819	3701.875
2581.52719	3686.075
2584.21451	3676.575
2586.90015	3672.875
2589.58411	3653.275
2592.2664	3666.275
2594.94701	3655.375
2597.62594	3649.275
2600.30321	3644.575
2602.9788	3632.675
2605.65273	3644.275
2608.32498	3639.275
2610.99557	3633.975
2613.66449	3624.475
2616.33175	3606.475
2618.99734	3617.875
2621.66128	3609.375
2624.32355	3597.475
2626.98416	3603.475
2629.64311	3589.775
2632.30041	3596.175
2634.95605	3597.375
2637.61004	3581.475
2640.26238	3579.675
2642.91306	3580.475
2645.56209	3572.775
2648.20948	3564.975
2650.85521	3560.775
2653.4993	3568.575
2656.14175	3560.075
2658.78255	3590.875
2661.42171	3574.175
2664.05923	3575.175
2666.6951	3567.375
2669.32934	3562.175
2671.96194	3582.075
2674.59291	3574.175
2677.22224	3567.275
2679.84993	3564.775
2682.476	3543.875
2685.10043	3564.075
2687.72324	3545.675
2690.34441	3543.275
2692.96396	3562.375
2695.58188	3542.775
2698.19818	3551.475
2700.81285	3550.475
2703.4259	3574.475
2706.03733	3620.375
2708.64714	3576.775
2711.25533	3559.475
2713.86191	3553.175
2716.46687	3576.475
2719.07021	3571.475
2721.67194	3556.475
2724.27206	3549.075
2726.87057	3546.075
2729.46747	3549.575
2732.06276	3552.875
2734.65644	3557.175
2737.24852	3548.775
2739.83899	3527.875
2742.42786	3533.975
2745.01513	3527.775
2747.60079	3520.875
2750.18486	3518.275
2752.76733	3525.275
2755.3482	3505.575
2757.92747	3515.675
2760.50515	3501.275
2763.08123	3510.175
2765.65573	3502.675
2768.22863	3485.575
2770.79994	3491.975
2773.36967	3485.875
2775.9378	3484.175
2778.50435	3471.375
2781.06932	3485.175
2783.6327	3479.775
2786.1945	3480.575
2788.75471	3471.075
2791.31335	3460.675
2793.87041	3449.075
2796.42589	3444.675
2798.97979	3452.775
2801.53212	3432.575
2804.08288	3445.775
2806.63206	3424.975
2809.17967	3412.875
2811.72571	3412.575
2814.27018	3420.075
2816.81308	3414.875
2819.35442	3402.175
2821.89419	3401.875
2824.43239	3411.675
2826.96904	3396.775
2829.50412	3388.975
2832.03763	3400.375
2834.56959	3389.375
2837.1	3377.575
2839.62884	3396.675
2842.15613	3397.575
2844.68186	3405.275
2847.20604	3403.675
2849.72867	3424.775
2852.24974	3424.275
2854.76927	3419.775
2857.28724	3423.675
2859.80367	3414.375
2862.31855	3404.575
2864.83189	3386.775
2867.34368	3397.275
2869.85393	3384.575
2872.36264	3377.875
2874.8698	3388.075
2877.37543	3362.975
2879.87952	3368.675
2882.38207	3380.975
2884.88308	3370.675
2887.38256	3373.775
2889.88051	3359.275
2892.37692	3381.275
2894.8718	3364.975
2897.36515	3382.075
2899.85698	3377.675
2902.34727	3369.475
2904.83604	3374.975
2907.32328	3386.275
2909.809	3377.075
2912.29319	3396.075
2914.77587	3395.675
2917.25702	3371.975
2919.73665	3383.575
2922.21476	3389.675
2924.69136	3394.375
2927.16644	3396.175
2929.64	3386.275
2932.11205	3381.075
2934.58258	3375.475
2937.05161	3381.475
2939.51912	3374.675
2941.98513	3375.575
2944.44962	3361.575
2946.91261	3339.175
2949.37409	3347.675
2951.83407	3341.075
2954.29254	3329.375
2956.74951	3342.575
2959.20498	3321.975
2961.65895	3308.075
2964.11142	3315.575
2966.56239	3275.875
2969.01186	3299.475
2971.45984	3273.475
2973.90632	3268.775
2976.35131	3253.375
2978.7948	3242.175
2981.23681	3247.275
2983.67732	3233.975
2986.11635	3226.675
2988.55388	3215.975
2990.98993	3193.875
2993.4245	3190.375
2995.85758	3177.075
2998.28917	3180.775
3000.71928	3188.275
3003.14791	3174.775
3005.57506	3180.575
3008.00073	3171.875
3010.42493	3159.375
3012.84764	3153.175
3015.26888	3155.975
3017.68865	3165.475
3020.10694	3136.275
3022.52376	3137.875
3024.9391	3133.975
3027.35298	3132.875
3029.76539	3111.675
3032.17632	3112.975
3034.5858	3105.375
3036.9938	3111.975
3039.40034	3101.575
3041.80542	3110.475
3044.20903	3092.775
3046.61118	3088.275
3049.01187	3095.575
3051.4111	3085.675
3053.80888	3074.975
3056.20519	3062.375
3058.60005	3072.075
3060.99345	3051.175
3063.3854	3054.675
3065.7759	3053.875
3068.16494	3047.075
3070.55254	3037.675
3072.93868	3044.975
3075.32338	3038.775
3077.70662	3029.375
3080.08842	3018.875
3082.46878	3026.075
3084.84769	3020.375
3087.22515	3011.175
3089.60118	3023.875
3091.97576	3028.175
3094.3489	3017.775
3096.72061	3020.475
3099.09087	3019.575
3101.4597	3008.675
3103.82709	3012.275
3106.19305	3006.675
3108.55757	3001.175
3110.92066	3006.175
3113.28232	3000.575
3115.64255	2988.175
3118.00134	2988.975
3120.35871	2983.975
3122.71466	2972.775
3125.06917	2986.475
3127.42226	2976.975
3129.77393	2988.475
3132.12417	2989.175
3134.47299	2993.575
3136.82039	2991.175
3139.16636	2993.175
3141.51092	3001.675
3143.85406	3002.175
3146.19579	3009.975
3148.53609	2999.475
3150.87499	3018.075
3153.21246	3014.375
3155.54853	3026.875
3157.88318	3012.775
3160.21642	3019.275
3162.54826	3011.475
3164.87868	3025.675
3167.2077	3040.375
3169.5353	3027.175
3171.86151	3022.575
3174.18631	3029.275
3176.5097	3026.375
3178.83169	3027.775
3181.15228	3022.375
3183.47147	3026.375
3185.78926	3039.575
3188.10565	3018.875
3190.42065	3025.175
3192.73424	3033.075
3195.04645	3026.575
3197.35725	3017.775
3199.66667	3035.875
3201.97469	3047.575
3204.28132	3040.275
3206.58656	3057.175
3208.8904	3054.775
3211.19287	3037.375
3213.49394	3048.475
3215.79363	3031.475
3218.09193	3039.675
3220.38884	3056.575
3222.68438	3056.575
3224.97853	3047.675
3227.2713	3042.375
3229.56269	3039.975
3231.8527	3049.075
3234.14133	3032.975
3236.42858	3033.375
3238.71446	3032.175
3240.99896	3027.575
3243.28209	3015.375
3245.56384	3031.875
3247.84423	3022.275
3250.12324	3014.875
3252.40088	3020.175
3254.67715	3014.175
3256.95205	3016.775
3259.22558	3003.675
3261.49775	2988.675
3263.76855	2992.375
3266.03799	2989.475
3268.30606	2978.775
3270.57277	2962.875
3272.83812	2971.975
3275.10211	2963.175
3277.36474	2970.575
3279.62601	2971.175
3281.88593	2954.075
3284.14448	2961.675
3286.40168	2966.675
3288.65753	2956.175
3290.91202	2950.375
3293.16516	2950.775
3295.41695	2945.175
3297.66738	2930.975
3299.91647	2912.675
3302.16421	2899.975
3304.4106	2879.075
3306.65564	2861.975
3308.89933	2857.375
3311.14169	2837.475
3313.38269	2828.975
3315.62236	2790.875
3317.86068	2777.775
3320.09766	2749.275
3322.3333	2719.675
3324.5676	2729.575
3326.80056	2692.075
3329.03219	2677.575
3331.26248	0.075
3333.49143	0.175
3335.71905	0.875
