Data from AgNPs_FTO_APTES_UA_10um_CRN_0.1mM_R6G_10uM_NaF_0.1M_Addition_RamanShift__7__13-43-39-131.txt Node

Date: Tue Dec 21 13:43:39 GMT 2021
User: TCL
Spectrometer: QEP01345
Trigger mode: 4
Integration Time (sec): 7.000000E0
Scans to average: 10
Electric dark correction enabled: true
Nonlinearity correction enabled: false
Boxcar width: 0
XAxis mode: Raman Shifts
Number of Pixels in Spectrum: 1044
>>>>>Begin Spectral Data<<<<<
46.04893	-1.175
50.45542	0.325
54.85868	-0.975
59.25871	0.725
63.6555	44.625
68.04907	49.425
72.43941	50.825
76.82654	53.925
81.21044	57.625
85.59113	57.925
89.96862	61.125
94.34289	61.025
98.71396	64.425
103.08183	64.425
107.4465	71.225
111.80798	71.125
116.16626	72.425
120.52136	75.625
124.87327	76.525
129.222	79.925
133.56755	87.725
137.90993	93.225
142.24913	99.825
146.58517	114.325
150.91804	134.325
155.24774	159.625
159.57429	190.025
163.89768	241.125
168.21792	321.725
172.53501	433.825
176.84895	606.525
181.15975	851.425
185.46741	1187.625
189.77193	1638.225
194.07331	2195.525
198.37157	2826.525
202.6667	3496.525
206.9587	4194.125
211.24758	4856.725
215.53334	5526.325
219.81599	6245.525
224.09553	7002.925
228.37195	7884.725
232.64527	8809.725
236.91549	9776.825
241.18261	10755.725
245.44663	11667.625
249.70755	12481.825
253.96539	13150.625
258.22014	13728.425
262.4718	14169.525
266.72039	14499.025
270.96589	14623.425
275.20832	14591.125
279.44768	14481.625
283.68397	14328.925
287.91719	14234.725
292.14735	14163.425
296.37445	14136.325
300.59849	14186.125
304.81948	14239.725
309.03742	14264.825
313.25231	14148.925
317.46415	13932.225
321.67296	13614.125
325.87872	13280.625
330.08145	13086.225
334.28114	13038.725
338.47781	13067.525
342.67145	13217.825
346.86207	13395.625
351.04966	13628.025
355.23424	13836.625
359.4158	14076.825
363.59435	14206.125
367.76989	14265.325
371.94243	14325.625
376.11196	14363.025
380.27849	14415.925
384.44203	14527.825
388.60257	14672.625
392.76012	14854.725
396.91468	15094.525
401.06626	15368.725
405.21485	15562.625
409.36047	15508.425
413.50311	15285.025
417.64277	15116.625
421.77947	15137.425
425.9132	15174.725
430.04396	15209.525
434.17176	15291.625
438.2966	15375.925
442.41849	15591.425
446.53742	15977.525
450.6534	16429.925
454.76644	16698.525
458.87653	16840.925
462.98368	16761.425
467.08789	16627.025
471.18916	16471.525
475.2875	16290.825
479.38291	16225.625
483.4754	16186.625
487.56496	16023.025
491.6516	15716.225
495.73531	15453.425
499.81612	15265.225
503.89401	15319.125
507.96899	15308.125
512.04106	15263.625
516.11023	15115.425
520.1765	14929.625
524.23987	14812.925
528.30034	14652.225
532.35792	14574.325
536.41261	14439.525
540.46441	14310.825
544.51333	14254.325
548.55936	14387.725
552.60252	14664.425
556.64279	15027.025
560.6802	15313.725
564.71473	15483.425
568.7464	15781.525
572.7752	16256.025
576.80114	16815.825
580.82422	17388.525
584.84444	18013.325
588.86181	18801.425
592.87633	19445.925
596.888	19392.425
600.89682	18511.425
604.9028	18112.525
608.90594	18918.425
612.90624	19989.025
616.90371	18751.725
620.89834	15841.525
624.89015	14506.225
628.87913	14370.125
632.86528	14535.525
636.84862	14607.625
640.82913	14405.425
644.80683	14080.325
648.78172	13812.425
652.75379	13757.525
656.72306	13830.025
660.68952	14005.725
664.65319	13939.625
668.61405	13753.125
672.57211	13743.825
676.52738	13837.025
680.47986	13903.925
684.42955	13827.525
688.37646	13732.525
692.32058	13718.425
696.26192	13863.325
700.20048	14015.625
704.13626	14142.425
708.06928	14167.025
711.99952	14154.825
715.927	14110.525
719.85171	14133.225
723.77365	14066.325
727.69284	13877.425
731.60928	13724.625
735.52295	13627.825
739.43388	13624.025
743.34206	13637.225
747.24749	13719.525
751.15017	13850.325
755.05012	14087.725
758.94733	14495.425
762.8418	15161.325
766.73354	16257.725
770.62254	17296.625
774.50882	17490.025
778.39237	16793.025
782.27321	15607.125
786.15132	14612.025
790.02671	13952.825
793.89938	13594.825
797.76935	13462.325
801.6366	13437.625
805.50115	13426.125
809.36299	13308.025
813.22213	13225.225
817.07857	13150.925
820.93231	13079.825
824.78336	12942.125
828.63172	12897.225
832.47738	12844.125
836.32036	12844.025
840.16066	12831.125
843.99827	12799.525
847.8332	12735.225
851.66546	12730.625
855.49504	12749.425
859.32195	12711.325
863.1462	12691.125
866.96777	12652.425
870.78668	12638.825
874.60293	12677.825
878.41652	12699.125
882.22745	12745.025
886.03573	12800.525
889.84136	12822.325
893.64433	12775.825
897.44466	12717.725
901.24235	12638.925
905.0374	12537.725
908.8298	12492.525
912.61957	12501.125
916.40671	12585.925
920.19121	12766.825
923.97308	12919.125
927.75233	12960.225
931.52895	12839.525
935.30295	12581.825
939.07433	12351.925
942.84309	12144.125
946.60924	12046.525
950.37278	11982.725
954.13371	11983.125
957.89203	11976.225
961.64774	11982.825
965.40086	11979.525
969.15137	11922.925
972.89929	11858.225
976.64461	11792.225
980.38733	11756.925
984.12747	11770.125
987.86502	11801.525
991.59999	11865.725
995.33237	11970.425
999.06217	12184.825
1002.78939	12440.525
1006.51404	12731.325
1010.23611	12962.525
1013.95561	13172.625
1017.67255	13236.025
1021.38692	13137.725
1025.09872	12857.225
1028.80796	12664.225
1032.51465	12606.625
1036.21877	12662.725
1039.92035	12733.025
1043.61937	12835.825
1047.31584	12835.625
1051.00976	12813.125
1054.70114	12846.725
1058.38998	12874.525
1062.07627	12975.125
1065.76003	13153.125
1069.44126	13360.825
1073.11995	13606.425
1076.79611	13842.725
1080.46974	13895.525
1084.14085	13928.125
1087.80943	14035.025
1091.47549	14192.025
1095.13903	14308.725
1098.80005	14145.025
1102.45857	13749.625
1106.11456	13386.025
1109.76805	13176.925
1113.41903	13187.325
1117.06751	13244.625
1120.71348	13405.725
1124.35696	13586.725
1127.99793	13775.425
1131.63641	13959.025
1135.2724	13955.725
1138.90589	13910.025
1142.5369	13938.125
1146.16542	14055.825
1149.79145	14204.525
1153.415	14356.325
1157.03607	14542.725
1160.65467	14955.125
1164.27079	15643.425
1167.88443	16540.425
1171.49561	17537.025
1175.10432	18767.225
1178.71056	20306.225
1182.31434	21715.025
1185.91565	22358.925
1189.51451	22178.025
1193.11091	21612.825
1196.70485	20801.025
1200.29634	19915.125
1203.88538	19324.025
1207.47197	18953.425
1211.05612	18702.025
1214.63782	18363.525
1218.21708	17818.925
1221.79391	17322.025
1225.36829	16942.425
1228.94024	16739.425
1232.50976	16577.425
1236.07685	16286.825
1239.6415	16109.025
1243.20374	16028.225
1246.76355	16146.325
1250.32093	16373.625
1253.8759	16731.725
1257.42845	17254.425
1260.97859	17795.025
1264.52631	18393.925
1268.07163	18944.625
1271.61453	19445.025
1275.15503	20012.025
1278.69312	20644.325
1282.22882	21377.825
1285.76211	22303.225
1289.29301	23359.225
1292.82151	24529.025
1296.34761	25875.025
1299.87133	27303.025
1303.39266	28741.625
1306.9116	29955.825
1310.42815	30935.025
1313.94233	31430.725
1317.45412	31327.325
1320.96354	30714.525
1324.47058	30195.325
1327.97525	29847.225
1331.47754	29574.125
1334.97747	29337.825
1338.47502	28991.125
1341.97022	28535.425
1345.46305	28100.625
1348.95352	27712.325
1352.44163	27757.325
1355.92738	28301.925
1359.41078	29432.325
1362.89183	30466.825
1366.37053	30315.225
1369.84688	28407.625
1373.32088	25409.825
1376.79254	23140.425
1380.26186	22235.525
1383.72883	22104.625
1387.19347	22019.825
1390.65578	21791.025
1394.11575	21687.825
1397.57339	21878.425
1401.0287	22177.825
1404.48168	22439.425
1407.93234	22328.225
1411.38068	21799.425
1414.82669	21012.425
1418.27039	20079.625
1421.71177	19151.825
1425.15083	18454.425
1428.58758	18075.325
1432.02203	18208.425
1435.45416	18668.625
1438.88399	19225.325
1442.31151	19653.625
1445.73673	19953.425
1449.15965	20234.625
1452.58027	20399.625
1455.9986	20445.325
1459.41463	20538.125
1462.82837	20827.325
1466.23982	21243.725
1469.64898	21649.625
1473.05586	21879.425
1476.46045	21917.625
1479.86276	21801.625
1483.26279	21656.425
1486.66054	21578.725
1490.05602	21785.925
1493.44922	22078.025
1496.84016	22453.025
1500.22882	22857.625
1503.61521	23452.225
1506.99934	24111.325
1510.38121	24587.225
1513.76081	24593.925
1517.13816	24134.525
1520.51324	23400.525
1523.88607	22868.425
1527.25665	22617.325
1530.62498	22553.725
1533.99105	22430.025
1537.35488	22029.425
1540.71647	21424.225
1544.07581	20698.625
1547.4329	19948.425
1550.78776	19362.525
1554.14038	18947.125
1557.49077	18762.125
1560.83892	18709.925
1564.18484	18769.825
1567.52853	18906.125
1570.86999	19139.025
1574.20922	19537.425
1577.54624	19923.525
1580.88103	20100.825
1584.2136	20244.225
1587.54395	20711.225
1590.87208	21662.025
1594.19801	22931.125
1597.52172	24146.325
1600.84321	24465.525
1604.16251	23401.525
1607.47959	21457.425
1610.79447	19395.225
1614.10715	17544.525
1617.41763	16121.325
1620.7259	15143.925
1624.03199	14704.025
1627.33587	14634.225
1630.63757	15069.525
1633.93707	16091.225
1637.23439	17863.425
1640.52951	20521.925
1643.82246	23798.525
1647.11321	26645.725
1650.40179	27467.025
1653.68819	25608.925
1656.97241	22097.125
1660.25446	18542.525
1663.53433	15845.325
1666.81203	14102.425
1670.08756	12983.325
1673.36092	12290.525
1676.63211	11824.225
1679.90115	11508.825
1683.16801	11281.725
1686.43272	11078.925
1689.69527	10960.325
1692.95567	10851.525
1696.2139	10816.325
1699.46999	10756.925
1702.72392	10704.725
1705.97571	10643.325
1709.22535	10581.225
1712.47284	10550.925
1715.71819	10503.825
1718.96139	10451.725
1722.20246	10384.825
1725.44139	10350.025
1728.67818	10292.025
1731.91284	10228.325
1735.14537	10153.425
1738.37576	10112.225
1741.60403	10073.425
1744.83017	10048.225
1748.05418	10020.225
1751.27607	9999.425
1754.49584	10016.325
1757.71349	10054.425
1760.92903	10037.425
1764.14244	10002.025
1767.35375	9987.925
1770.56294	9959.725
1773.77002	9869.225
1776.97499	9828.625
1780.17785	9802.125
1783.37861	9741.025
1786.57727	9735.125
1789.77382	9676.025
1792.96828	9662.325
1796.16064	9635.625
1799.3509	9597.125
1802.53907	9592.425
1805.72514	9540.125
1808.90913	9504.425
1812.09102	9506.425
1815.27083	9468.625
1818.44856	9465.625
1821.6242	9449.625
1824.79776	9451.025
1827.96924	9398.625
1831.13864	9417.125
1834.30597	9401.425
1837.47122	9401.825
1840.6344	9386.025
1843.7955	9410.825
1846.95454	9375.725
1850.11151	9365.825
1853.26642	9352.225
1856.41926	9340.725
1859.57004	9335.225
1862.71876	9341.425
1865.86542	9339.325
1869.01003	9332.725
1872.15258	9298.325
1875.29308	9278.625
1878.43152	9275.925
1881.56792	9245.125
1884.70227	9236.325
1887.83457	9233.525
1890.96482	9208.425
1894.09304	9187.325
1897.21921	9179.225
1900.34335	9176.425
1903.46544	9154.925
1906.58551	9144.825
1909.70353	9133.425
1912.81953	9107.225
1915.93349	9073.425
1919.04543	9079.725
1922.15534	9024.125
1925.26322	9017.725
1928.36908	8985.025
1931.47292	8962.825
1934.57473	8927.625
1937.67453	8905.225
1940.77232	8876.425
1943.86808	8870.725
1946.96184	8841.425
1950.05358	8821.825
1953.14331	8798.025
1956.23103	8754.525
1959.31675	8732.125
1962.40046	8731.025
1965.48217	8677.225
1968.56188	8652.925
1971.63959	8610.525
1974.7153	8583.425
1977.78901	8550.725
1980.86073	8514.225
1983.93046	8517.725
1986.99819	8465.525
1990.06394	8449.525
1993.1277	8436.725
1996.18947	8391.225
1999.24925	8388.325
2002.30706	8349.925
2005.36288	8301.125
2008.41672	8303.725
2011.46859	8254.125
2014.51848	8232.125
2017.56639	8201.425
2020.61233	8181.525
2023.6563	8166.325
2026.6983	8167.625
2029.73833	8138.025
2032.7764	8116.425
2035.8125	8096.825
2038.84664	8070.725
2041.87881	8047.325
2044.90903	8015.625
2047.93729	8045.725
2050.96359	8023.025
2053.98794	8020.725
2057.01034	8009.225
2060.03078	7982.625
2063.04927	7975.125
2066.06582	7964.925
2069.08042	7989.625
2072.09307	7957.225
2075.10378	7951.825
2078.11255	7950.425
2081.11938	7968.225
2084.12426	7945.825
2087.12722	7902.725
2090.12824	7924.625
2093.12732	7902.725
2096.12447	7924.825
2099.11969	7893.025
2102.11299	7904.525
2105.10435	7928.725
2108.09379	7926.625
2111.08131	7937.925
2114.0669	7907.025
2117.05057	7930.025
2120.03233	7921.025
2123.01216	7941.025
2125.99008	7916.425
2128.96609	7945.425
2131.94018	7931.025
2134.91236	7928.425
2137.88263	7923.525
2140.851	7928.025
2143.81746	7929.325
2146.78201	7924.725
2149.74466	7915.325
2152.7054	7939.425
2155.66425	7921.525
2158.6212	7908.225
2161.57625	7894.325
2164.52941	7893.225
2167.48067	7881.525
2170.43004	7877.925
2173.37752	7868.325
2176.32311	7871.925
2179.26681	7882.025
2182.20863	7872.125
2185.14856	7871.825
2188.08661	7856.925
2191.02278	7853.625
2193.95707	7851.425
2196.88948	7841.725
2199.82001	7846.025
2202.74867	7829.925
2205.67545	7806.525
2208.60037	7806.525
2211.52341	7798.825
2214.44458	7767.225
2217.36388	7749.725
2220.28132	7748.425
2223.1969	7703.125
2226.11061	7740.725
2229.02246	7697.225
2231.93245	7690.325
2234.84058	7690.525
2237.74686	7682.425
2240.65128	7666.925
2243.55385	7669.825
2246.45456	7630.725
2249.35343	7628.825
2252.25044	7615.425
2255.14561	7592.625
2258.03893	7583.525
2260.93041	7568.425
2263.82004	7548.325
2266.70783	7524.325
2269.59378	7485.725
2272.4779	7457.725
2275.36017	7462.025
2278.24061	7453.725
2281.11922	7436.925
2283.996	7410.925
2286.87094	7389.125
2289.74405	7369.725
2292.61534	7375.225
2295.4848	7371.925
2298.35243	7360.725
2301.21824	7334.225
2304.08223	7344.925
2306.94439	7344.825
2309.80474	7329.125
2312.66327	7322.725
2315.51999	7312.625
2318.37489	7304.425
2321.22797	7289.825
2324.07925	7288.925
2326.92871	7280.025
2329.77637	7270.025
2332.62222	7275.725
2335.46626	7248.125
2338.3085	7232.825
2341.14893	7249.925
2343.98756	7245.325
2346.8244	7233.625
2349.65943	7233.825
2352.49267	7234.525
2355.32411	7248.025
2358.15376	7234.425
2360.98161	7218.525
2363.80768	7223.725
2366.63195	7215.025
2369.45444	7199.425
2372.27514	7197.125
2375.09405	7177.625
2377.91118	7171.025
2380.72652	7160.725
2383.54009	7126.825
2386.35187	7111.825
2389.16188	7079.125
2391.97011	7090.425
2394.77657	7059.125
2397.58125	7066.825
2400.38416	7054.225
2403.18529	7056.125
2405.98466	7045.925
2408.78226	7024.525
2411.57809	7005.525
2414.37216	6992.125
2417.16446	7004.125
2419.955	6970.025
2422.74378	6988.725
2425.5308	6969.225
2428.31606	6952.325
2431.09956	6942.925
2433.88131	6954.525
2436.6613	6967.025
2439.43954	6939.825
2442.21603	6914.025
2444.99077	6919.625
2447.76377	6927.025
2450.53501	6930.425
2453.30451	6927.125
2456.07226	6922.325
2458.83827	6928.625
2461.60254	6925.325
2464.36507	6939.425
2467.12586	6914.625
2469.88492	6909.725
2472.64224	6909.825
2475.39782	6916.325
2478.15167	6922.925
2480.90379	6911.125
2483.65417	6903.925
2486.40283	6887.025
2489.14976	6901.825
2491.89497	6882.225
2494.63845	6906.025
2497.3802	6913.225
2500.12024	6896.825
2502.85855	6876.425
2505.59514	6880.425
2508.33002	6855.725
2511.06318	6883.125
2513.79462	6847.025
2516.52435	6854.725
2519.25237	6849.925
2521.97867	6815.525
2524.70327	6825.925
2527.42616	6828.025
2530.14734	6821.525
2532.86681	6778.125
2535.58458	6784.825
2538.30065	6784.125
2541.01501	6785.325
2543.72768	6765.925
2546.43864	6757.825
2549.14791	6762.725
2551.85548	6764.425
2554.56136	6733.025
2557.26554	6724.525
2559.96803	6729.725
2562.66883	6741.425
2565.36794	6731.825
2568.06536	6731.325
2570.7611	6712.825
2573.45514	6694.225
2576.14751	6685.125
2578.83819	6685.825
2581.52719	6680.925
2584.21451	6680.425
2586.90015	6672.925
2589.58411	6651.725
2592.2664	6652.425
2594.94701	6637.525
2597.62594	6629.325
2600.30321	6633.425
2602.9788	6609.525
2605.65273	6604.125
2608.32498	6612.525
2610.99557	6620.825
2613.66449	6603.925
2616.33175	6593.525
2618.99734	6610.125
2621.66128	6588.225
2624.32355	6561.025
2626.98416	6588.625
2629.64311	6574.725
2632.30041	6578.625
2634.95605	6583.225
2637.61004	6569.725
2640.26238	6556.925
2642.91306	6551.825
2645.56209	6543.425
2648.20948	6557.225
2650.85521	6547.525
2653.4993	6544.125
2656.14175	6540.925
2658.78255	6552.025
2661.42171	6560.525
2664.05923	6545.825
2666.6951	6560.925
2669.32934	6567.725
2671.96194	6563.725
2674.59291	6546.525
2677.22224	6575.925
2679.84993	6560.025
2682.476	6542.625
2685.10043	6549.825
2687.72324	6544.525
2690.34441	6541.925
2692.96396	6538.025
2695.58188	6550.825
2698.19818	6532.025
2700.81285	6547.025
2703.4259	6561.325
2706.03733	6624.825
2708.64714	6590.325
2711.25533	6567.825
2713.86191	6557.325
2716.46687	6576.525
2719.07021	6549.825
2721.67194	6566.225
2724.27206	6564.525
2726.87057	6573.425
2729.46747	6557.125
2732.06276	6578.625
2734.65644	6574.825
2737.24852	6570.625
2739.83899	6538.725
2742.42786	6552.625
2745.01513	6547.325
2747.60079	6542.325
2750.18486	6531.925
2752.76733	6520.725
2755.3482	6518.925
2757.92747	6536.325
2760.50515	6515.025
2763.08123	6539.725
2765.65573	6502.225
2768.22863	6522.025
2770.79994	6513.325
2773.36967	6520.425
2775.9378	6504.125
2778.50435	6492.525
2781.06932	6476.725
2783.6327	6488.225
2786.1945	6470.225
2788.75471	6483.525
2791.31335	6461.125
2793.87041	6458.225
2796.42589	6441.325
2798.97979	6455.325
2801.53212	6414.225
2804.08288	6398.925
2806.63206	6411.425
2809.17967	6407.025
2811.72571	6375.425
2814.27018	6398.325
2816.81308	6368.325
2819.35442	6353.625
2821.89419	6341.525
2824.43239	6362.725
2826.96904	6353.025
2829.50412	6341.525
2832.03763	6334.925
2834.56959	6352.125
2837.1	6332.025
2839.62884	6328.225
2842.15613	6324.825
2844.68186	6352.625
2847.20604	6361.425
2849.72867	6365.025
2852.24974	6359.325
2854.76927	6365.725
2857.28724	6373.725
2859.80367	6347.325
2862.31855	6325.625
2864.83189	6298.325
2867.34368	6305.225
2869.85393	6311.225
2872.36264	6297.825
2874.8698	6283.125
2877.37543	6266.825
2879.87952	6294.625
2882.38207	6266.025
2884.88308	6270.125
2887.38256	6273.925
2889.88051	6282.025
2892.37692	6274.925
2894.8718	6289.525
2897.36515	6292.925
2899.85698	6294.725
2902.34727	6297.525
2904.83604	6291.925
2907.32328	6308.825
2909.809	6311.725
2912.29319	6306.725
2914.77587	6311.225
2917.25702	6324.025
2919.73665	6324.025
2922.21476	6313.125
2924.69136	6307.925
2927.16644	6320.425
2929.64	6306.825
2932.11205	6315.625
2934.58258	6275.925
2937.05161	6313.625
2939.51912	6305.825
2941.98513	6313.425
2944.44962	6273.025
2946.91261	6256.325
2949.37409	6263.125
2951.83407	6261.725
2954.29254	6245.925
2956.74951	6224.625
2959.20498	6227.725
2961.65895	6196.725
2964.11142	6185.925
2966.56239	6152.025
2969.01186	6148.125
2971.45984	6135.725
2973.90632	6120.225
2976.35131	6101.925
2978.7948	6086.325
2981.23681	6085.625
2983.67732	6059.325
2986.11635	6034.725
2988.55388	6017.525
2990.98993	6008.525
2993.4245	5985.325
2995.85758	5967.125
2998.28917	5946.725
3000.71928	5959.325
3003.14791	5946.225
3005.57506	5931.125
3008.00073	5922.225
3010.42493	5929.425
3012.84764	5904.325
3015.26888	5895.225
3017.68865	5873.425
3020.10694	5875.625
3022.52376	5847.125
3024.9391	5835.425
3027.35298	5830.225
3029.76539	5821.425
3032.17632	5813.325
3034.5858	5816.625
3036.9938	5799.225
3039.40034	5782.325
3041.80542	5770.825
3044.20903	5754.825
3046.61118	5771.125
3049.01187	5747.925
3051.4111	5747.125
3053.80888	5742.825
3056.20519	5729.525
3058.60005	5710.325
3060.99345	5701.825
3063.3854	5666.925
3065.7759	5668.525
3068.16494	5658.325
3070.55254	5630.525
3072.93868	5625.025
3075.32338	5617.425
3077.70662	5611.125
3080.08842	5595.225
3082.46878	5578.125
3084.84769	5557.525
3087.22515	5564.125
3089.60118	5562.325
3091.97576	5562.825
3094.3489	5546.425
3096.72061	5559.325
3099.09087	5546.225
3101.4597	5543.425
3103.82709	5541.425
3106.19305	5524.625
3108.55757	5528.025
3110.92066	5500.825
3113.28232	5494.725
3115.64255	5472.925
3118.00134	5483.025
3120.35871	5464.725
3122.71466	5449.125
3125.06917	5457.225
3127.42226	5436.425
3129.77393	5449.525
3132.12417	5434.025
3134.47299	5441.325
3136.82039	5437.025
3139.16636	5422.125
3141.51092	5420.625
3143.85406	5427.025
3146.19579	5425.225
3148.53609	5438.125
3150.87499	5428.725
3153.21246	5439.625
3155.54853	5433.525
3157.88318	5436.625
3160.21642	5410.525
3162.54826	5432.325
3164.87868	5434.925
3167.2077	5401.225
3169.5353	5410.825
3171.86151	5405.325
3174.18631	5404.525
3176.5097	5403.025
3178.83169	5400.125
3181.15228	5389.725
3183.47147	5387.225
3185.78926	5397.925
3188.10565	5378.325
3190.42065	5382.925
3192.73424	5360.725
3195.04645	5360.125
3197.35725	5390.225
3199.66667	5390.125
3201.97469	5366.125
3204.28132	5380.225
3206.58656	5386.425
3208.8904	5364.025
3211.19287	5368.025
3213.49394	5381.225
3215.79363	5378.625
3218.09193	5364.925
3220.38884	5387.325
3222.68438	5392.225
3224.97853	5368.025
3227.2713	5353.725
3229.56269	5361.425
3231.8527	5338.025
3234.14133	5355.925
3236.42858	5319.125
3238.71446	5332.725
3240.99896	5321.925
3243.28209	5305.125
3245.56384	5309.325
3247.84423	5312.825
3250.12324	5300.325
3252.40088	5293.025
3254.67715	5290.325
3256.95205	5290.325
3259.22558	5274.425
3261.49775	5256.125
3263.76855	5225.325
3266.03799	5225.325
3268.30606	5213.025
3270.57277	5214.425
3272.83812	5194.425
3275.10211	5190.825
3277.36474	5191.125
3279.62601	5202.225
3281.88593	5189.625
3284.14448	5194.125
3286.40168	5176.125
3288.65753	5168.325
3290.91202	5191.825
3293.16516	5164.625
3295.41695	5149.025
3297.66738	5112.925
3299.91647	5091.925
3302.16421	5063.225
3304.4106	5038.525
3306.65564	5020.425
3308.89933	4986.425
3311.14169	4972.325
3313.38269	4915.725
3315.62236	4892.325
3317.86068	4843.125
3320.09766	4785.225
3322.3333	4762.825
3324.5676	4766.325
3326.80056	4687.025
3329.03219	4657.725
3331.26248	1.725
3333.49143	-0.275
3335.71905	-0.275
