Data from AgNPs_FTO_APTES_UA_10um_CRN_0.1mM_R6G_10uM_NaF_0.1M_Addition_RamanShift__12__13-49-29-137.txt Node

Date: Tue Dec 21 13:49:29 GMT 2021
User: TCL
Spectrometer: QEP01345
Trigger mode: 4
Integration Time (sec): 7.000000E0
Scans to average: 10
Electric dark correction enabled: true
Nonlinearity correction enabled: false
Boxcar width: 0
XAxis mode: Raman Shifts
Number of Pixels in Spectrum: 1044
>>>>>Begin Spectral Data<<<<<
46.04893	-0.775
50.45542	-0.175
54.85868	-1.175
59.25871	0.825
63.6555	39.225
68.04907	44.125
72.43941	46.225
76.82654	44.725
81.21044	51.225
85.59113	50.325
89.96862	53.125
94.34289	54.125
98.71396	54.625
103.08183	57.525
107.4465	61.125
111.80798	61.725
116.16626	62.725
120.52136	66.325
124.87327	65.125
129.222	68.925
133.56755	75.025
137.90993	79.125
142.24913	85.425
146.58517	96.925
150.91804	111.425
155.24774	130.425
159.57429	162.325
163.89768	205.925
168.21792	272.525
172.53501	364.425
176.84895	512.225
181.15975	716.625
185.46741	993.025
189.77193	1376.625
194.07331	1849.225
198.37157	2401.525
202.6667	2970.825
206.9587	3562.525
211.24758	4143.125
215.53334	4707.925
219.81599	5333.625
224.09553	5960.425
228.37195	6701.125
232.64527	7487.425
236.91549	8307.225
241.18261	9157.125
245.44663	9934.225
249.70755	10664.725
253.96539	11275.325
258.22014	11752.825
262.4718	12129.925
266.72039	12397.925
270.96589	12467.525
275.20832	12480.125
279.44768	12398.025
283.68397	12286.925
287.91719	12180.725
292.14735	12111.425
296.37445	12060.125
300.59849	12053.725
304.81948	12099.625
309.03742	12114.425
313.25231	11998.725
317.46415	11799.625
321.67296	11506.425
325.87872	11228.125
330.08145	11056.625
334.28114	11006.325
338.47781	11058.425
342.67145	11164.725
346.86207	11328.125
351.04966	11474.025
355.23424	11627.825
359.4158	11797.925
363.59435	11886.025
367.76989	11978.125
371.94243	11976.725
376.11196	12022.425
380.27849	12063.725
384.44203	12109.925
388.60257	12191.225
392.76012	12327.025
396.91468	12526.625
401.06626	12731.625
405.21485	12907.725
409.36047	12892.125
413.50311	12723.825
417.64277	12569.225
421.77947	12532.225
425.9132	12529.925
430.04396	12573.625
434.17176	12633.625
438.2966	12717.425
442.41849	12840.325
446.53742	13033.425
450.6534	13273.025
454.76644	13462.625
458.87653	13572.025
462.98368	13558.625
467.08789	13513.725
471.18916	13476.925
475.2875	13367.625
479.38291	13310.425
483.4754	13259.625
487.56496	13181.025
491.6516	13036.925
495.73531	12919.225
499.81612	12841.125
503.89401	12832.625
507.96899	12865.525
512.04106	12818.325
516.11023	12793.925
520.1765	12661.425
524.23987	12543.625
528.30034	12411.425
532.35792	12317.925
536.41261	12227.425
540.46441	12168.925
544.51333	12111.925
548.55936	12257.625
552.60252	12457.725
556.64279	12674.325
560.6802	12873.125
564.71473	12975.425
568.7464	13163.125
572.7752	13524.325
576.80114	13958.325
580.82422	14377.025
584.84444	14679.625
588.86181	14900.825
592.87633	15063.925
596.888	14999.425
600.89682	14762.325
604.9028	14791.225
608.90594	15486.425
612.90624	16341.525
616.90371	15518.125
620.89834	13394.425
624.89015	12414.325
628.87913	12321.025
632.86528	12476.125
636.84862	12550.325
640.82913	12435.425
644.80683	12157.925
648.78172	11962.725
652.75379	11904.625
656.72306	11934.625
660.68952	12111.925
664.65319	12133.025
668.61405	12045.625
672.57211	12022.125
676.52738	12108.425
680.47986	12112.625
684.42955	12068.125
688.37646	12010.725
692.32058	12016.325
696.26192	12064.025
700.20048	12142.625
704.13626	12241.525
708.06928	12292.825
711.99952	12276.725
715.927	12212.425
719.85171	12144.725
723.77365	12069.425
727.69284	11952.925
731.60928	11820.325
735.52295	11736.625
739.43388	11720.325
743.34206	11720.925
747.24749	11800.225
751.15017	11899.425
755.05012	12048.725
758.94733	12389.325
762.8418	12928.525
766.73354	13799.425
770.62254	14614.625
774.50882	14758.625
778.39237	14261.625
782.27321	13327.225
786.15132	12562.025
790.02671	12023.125
793.89938	11757.125
797.76935	11617.825
801.6366	11542.025
805.50115	11474.425
809.36299	11450.625
813.22213	11373.425
817.07857	11358.725
820.93231	11342.325
824.78336	11294.725
828.63172	11225.425
832.47738	11206.125
836.32036	11185.825
840.16066	11155.925
843.99827	11124.825
847.8332	11108.225
851.66546	11102.725
855.49504	11101.625
859.32195	11100.425
863.1462	11098.825
866.96777	11065.625
870.78668	11060.725
874.60293	11081.925
878.41652	11061.225
882.22745	11094.325
886.03573	11148.125
889.84136	11159.125
893.64433	11153.825
897.44466	11105.325
901.24235	11082.325
905.0374	11047.625
908.8298	11021.925
912.61957	11017.925
916.40671	11107.725
920.19121	11255.525
923.97308	11336.325
927.75233	11308.425
931.52895	11227.525
935.30295	11079.925
939.07433	10872.825
942.84309	10708.125
946.60924	10616.225
950.37278	10536.525
954.13371	10526.225
957.89203	10509.425
961.64774	10480.725
965.40086	10491.525
969.15137	10484.925
972.89929	10423.625
976.64461	10370.125
980.38733	10360.625
984.12747	10336.725
987.86502	10377.425
991.59999	10385.325
995.33237	10436.225
999.06217	10535.525
1002.78939	10654.125
1006.51404	10816.625
1010.23611	10976.825
1013.95561	11105.525
1017.67255	11127.825
1021.38692	11098.925
1025.09872	10971.525
1028.80796	10817.525
1032.51465	10759.225
1036.21877	10752.325
1039.92035	10831.825
1043.61937	10927.925
1047.31584	10975.725
1051.00976	11070.325
1054.70114	11083.425
1058.38998	11155.125
1062.07627	11241.525
1065.76003	11411.625
1069.44126	11549.325
1073.11995	11754.625
1076.79611	11892.825
1080.46974	11949.725
1084.14085	11955.925
1087.80943	11996.325
1091.47549	12125.525
1095.13903	12209.825
1098.80005	12159.625
1102.45857	11878.525
1106.11456	11584.525
1109.76805	11373.125
1113.41903	11304.925
1117.06751	11316.925
1120.71348	11428.125
1124.35696	11555.825
1127.99793	11722.225
1131.63641	11828.725
1135.2724	11801.525
1138.90589	11734.525
1142.5369	11741.425
1146.16542	11796.825
1149.79145	11859.725
1153.415	11947.725
1157.03607	12080.925
1160.65467	12295.625
1164.27079	12682.525
1167.88443	13179.825
1171.49561	13822.325
1175.10432	14595.825
1178.71056	15562.525
1182.31434	16477.725
1185.91565	17031.225
1189.51451	17206.425
1193.11091	17062.725
1196.70485	16578.725
1200.29634	15971.925
1203.88538	15457.425
1207.47197	15059.425
1211.05612	14734.725
1214.63782	14461.825
1218.21708	14116.125
1221.79391	13743.325
1225.36829	13439.225
1228.94024	13282.225
1232.50976	13183.025
1236.07685	13119.925
1239.6415	13087.525
1243.20374	13100.025
1246.76355	13163.525
1250.32093	13288.425
1253.8759	13479.025
1257.42845	13811.325
1260.97859	14163.925
1264.52631	14529.225
1268.07163	14904.925
1271.61453	15238.025
1275.15503	15529.625
1278.69312	15950.225
1282.22882	16297.725
1285.76211	16773.225
1289.29301	17284.025
1292.82151	17884.925
1296.34761	18503.225
1299.87133	19221.925
1303.39266	19972.025
1306.9116	20689.825
1310.42815	21300.125
1313.94233	21665.125
1317.45412	21632.025
1320.96354	21416.725
1324.47058	21242.325
1327.97525	21122.525
1331.47754	21139.225
1334.97747	21178.425
1338.47502	21201.825
1341.97022	21317.125
1345.46305	21380.325
1348.95352	21356.025
1352.44163	21290.325
1355.92738	21321.125
1359.41078	21622.025
1362.89183	22012.825
1366.37053	21799.725
1369.84688	20570.125
1373.32088	18912.225
1376.79254	17535.625
1380.26186	16830.725
1383.72883	16586.225
1387.19347	16358.625
1390.65578	16167.025
1394.11575	16029.325
1397.57339	15937.825
1401.0287	15990.325
1404.48168	16008.825
1407.93234	15909.325
1411.38068	15699.525
1414.82669	15258.725
1418.27039	14756.525
1421.71177	14249.825
1425.15083	13845.525
1428.58758	13598.025
1432.02203	13587.025
1435.45416	13740.925
1438.88399	13943.325
1442.31151	14165.725
1445.73673	14348.825
1449.15965	14596.425
1452.58027	14749.125
1455.9986	14911.825
1459.41463	15084.125
1462.82837	15301.125
1466.23982	15568.525
1469.64898	15856.825
1473.05586	16029.625
1476.46045	16085.425
1479.86276	16140.125
1483.26279	16166.825
1486.66054	16252.825
1490.05602	16463.625
1493.44922	16811.825
1496.84016	17288.525
1500.22882	17949.125
1503.61521	18685.525
1506.99934	19424.825
1510.38121	19877.625
1513.76081	19844.825
1517.13816	19372.325
1520.51324	18727.125
1523.88607	18103.725
1527.25665	17728.325
1530.62498	17458.825
1533.99105	17244.025
1537.35488	16894.525
1540.71647	16475.225
1544.07581	15982.725
1547.4329	15520.425
1550.78776	15128.725
1554.14038	14904.125
1557.49077	14812.425
1560.83892	14836.025
1564.18484	14969.825
1567.52853	15109.725
1570.86999	15287.625
1574.20922	15442.125
1577.54624	15610.025
1580.88103	15546.025
1584.2136	15388.525
1587.54395	15388.125
1590.87208	15695.725
1594.19801	16250.025
1597.52172	16876.025
1600.84321	17104.225
1604.16251	16635.125
1607.47959	15752.925
1610.79447	14785.125
1614.10715	13805.025
1617.41763	12928.025
1620.7259	12279.225
1624.03199	11877.825
1627.33587	11744.725
1630.63757	11869.925
1633.93707	12356.625
1637.23439	13186.125
1640.52951	14527.225
1643.82246	16230.825
1647.11321	17933.925
1650.40179	18938.925
1653.68819	18589.625
1656.97241	17000.925
1660.25446	14993.825
1663.53433	13144.525
1666.81203	11833.325
1670.08756	10936.225
1673.36092	10357.025
1676.63211	9962.525
1679.90115	9725.725
1683.16801	9532.625
1686.43272	9403.025
1689.69527	9280.625
1692.95567	9217.025
1696.2139	9187.525
1699.46999	9142.225
1702.72392	9115.125
1705.97571	9046.525
1709.22535	9003.025
1712.47284	8970.325
1715.71819	8952.925
1718.96139	8891.925
1722.20246	8853.725
1725.44139	8805.325
1728.67818	8760.625
1731.91284	8715.125
1735.14537	8683.125
1738.37576	8619.225
1741.60403	8601.425
1744.83017	8550.925
1748.05418	8558.025
1751.27607	8531.725
1754.49584	8538.825
1757.71349	8569.125
1760.92903	8580.725
1764.14244	8545.725
1767.35375	8522.425
1770.56294	8492.125
1773.77002	8449.325
1776.97499	8389.925
1780.17785	8357.825
1783.37861	8327.925
1786.57727	8269.625
1789.77382	8243.525
1792.96828	8226.425
1796.16064	8194.825
1799.3509	8167.325
1802.53907	8124.925
1805.72514	8119.025
1808.90913	8091.625
1812.09102	8077.125
1815.27083	8043.825
1818.44856	8025.525
1821.6242	8004.725
1824.79776	8027.525
1827.96924	7990.125
1831.13864	7972.525
1834.30597	7970.125
1837.47122	7978.025
1840.6344	7959.325
1843.7955	7959.925
1846.95454	7944.625
1850.11151	7931.125
1853.26642	7912.525
1856.41926	7914.325
1859.57004	7913.025
1862.71876	7889.225
1865.86542	7895.425
1869.01003	7876.225
1872.15258	7864.325
1875.29308	7858.425
1878.43152	7819.925
1881.56792	7817.525
1884.70227	7790.225
1887.83457	7772.025
1890.96482	7738.025
1894.09304	7725.025
1897.21921	7732.425
1900.34335	7729.225
1903.46544	7720.425
1906.58551	7695.425
1909.70353	7683.325
1912.81953	7645.325
1915.93349	7632.225
1919.04543	7625.125
1922.15534	7598.525
1925.26322	7588.425
1928.36908	7568.825
1931.47292	7537.325
1934.57473	7525.025
1937.67453	7496.525
1940.77232	7466.525
1943.86808	7450.725
1946.96184	7434.025
1950.05358	7402.325
1953.14331	7378.825
1956.23103	7348.725
1959.31675	7335.925
1962.40046	7322.125
1965.48217	7288.925
1968.56188	7264.025
1971.63959	7228.825
1974.7153	7234.325
1977.78901	7185.925
1980.86073	7172.425
1983.93046	7143.925
1986.99819	7128.525
1990.06394	7081.825
1993.1277	7086.625
1996.18947	7020.525
1999.24925	7021.025
2002.30706	6999.825
2005.36288	6985.325
2008.41672	6955.325
2011.46859	6899.725
2014.51848	6898.025
2017.56639	6872.125
2020.61233	6856.125
2023.6563	6844.025
2026.6983	6828.725
2029.73833	6806.525
2032.7764	6790.125
2035.8125	6757.925
2038.84664	6748.425
2041.87881	6731.725
2044.90903	6714.725
2047.93729	6700.625
2050.96359	6712.725
2053.98794	6680.725
2057.01034	6683.225
2060.03078	6673.825
2063.04927	6665.025
2066.06582	6643.825
2069.08042	6639.125
2072.09307	6608.525
2075.10378	6629.125
2078.11255	6629.025
2081.11938	6621.725
2084.12426	6600.925
2087.12722	6615.525
2090.12824	6601.125
2093.12732	6598.425
2096.12447	6601.525
2099.11969	6572.825
2102.11299	6586.325
2105.10435	6599.125
2108.09379	6582.425
2111.08131	6609.225
2114.0669	6593.225
2117.05057	6595.625
2120.03233	6583.425
2123.01216	6587.625
2125.99008	6593.925
2128.96609	6603.325
2131.94018	6597.825
2134.91236	6595.825
2137.88263	6603.225
2140.851	6601.825
2143.81746	6594.025
2146.78201	6601.125
2149.74466	6603.725
2152.7054	6599.025
2155.66425	6581.325
2158.6212	6567.125
2161.57625	6562.625
2164.52941	6559.025
2167.48067	6575.025
2170.43004	6552.325
2173.37752	6544.525
2176.32311	6536.425
2179.26681	6535.725
2182.20863	6546.225
2185.14856	6515.225
2188.08661	6518.625
2191.02278	6501.525
2193.95707	6496.425
2196.88948	6504.925
2199.82001	6499.425
2202.74867	6474.525
2205.67545	6465.325
2208.60037	6452.225
2211.52341	6445.425
2214.44458	6429.025
2217.36388	6403.325
2220.28132	6403.025
2223.1969	6368.625
2226.11061	6371.925
2229.02246	6357.325
2231.93245	6352.225
2234.84058	6349.025
2237.74686	6338.025
2240.65128	6315.925
2243.55385	6305.925
2246.45456	6290.025
2249.35343	6289.825
2252.25044	6274.025
2255.14561	6269.425
2258.03893	6272.325
2260.93041	6246.725
2263.82004	6234.125
2266.70783	6196.125
2269.59378	6176.625
2272.4779	6173.325
2275.36017	6141.125
2278.24061	6141.325
2281.11922	6118.125
2283.996	6101.825
2286.87094	6119.425
2289.74405	6083.225
2292.61534	6065.025
2295.4848	6083.825
2298.35243	6061.925
2301.21824	6050.225
2304.08223	6041.325
2306.94439	6026.625
2309.80474	6027.425
2312.66327	6012.325
2315.51999	5998.525
2318.37489	5985.425
2321.22797	5975.825
2324.07925	5963.725
2326.92871	5958.925
2329.77637	5971.425
2332.62222	5957.125
2335.46626	5931.325
2338.3085	5924.525
2341.14893	5924.725
2343.98756	5923.825
2346.8244	5920.325
2349.65943	5905.525
2352.49267	5894.325
2355.32411	5902.025
2358.15376	5897.225
2360.98161	5908.025
2363.80768	5889.725
2366.63195	5896.825
2369.45444	5867.925
2372.27514	5879.325
2375.09405	5853.625
2377.91118	5853.225
2380.72652	5844.825
2383.54009	5817.225
2386.35187	5804.025
2389.16188	5782.425
2391.97011	5763.325
2394.77657	5771.425
2397.58125	5763.825
2400.38416	5726.425
2403.18529	5729.325
2405.98466	5718.325
2408.78226	5719.325
2411.57809	5691.025
2414.37216	5674.325
2417.16446	5696.225
2419.955	5679.325
2422.74378	5682.825
2425.5308	5654.825
2428.31606	5651.325
2431.09956	5640.225
2433.88131	5650.225
2436.6613	5641.925
2439.43954	5624.725
2442.21603	5633.125
2444.99077	5607.625
2447.76377	5616.925
2450.53501	5620.325
2453.30451	5603.925
2456.07226	5600.325
2458.83827	5589.425
2461.60254	5590.825
2464.36507	5594.125
2467.12586	5573.125
2469.88492	5579.425
2472.64224	5573.225
2475.39782	5571.525
2478.15167	5580.925
2480.90379	5577.525
2483.65417	5566.325
2486.40283	5546.725
2489.14976	5550.825
2491.89497	5523.325
2494.63845	5557.625
2497.3802	5559.925
2500.12024	5537.525
2502.85855	5548.125
2505.59514	5512.025
2508.33002	5514.625
2511.06318	5505.525
2513.79462	5477.925
2516.52435	5487.325
2519.25237	5482.925
2521.97867	5464.525
2524.70327	5459.525
2527.42616	5462.625
2530.14734	5453.825
2532.86681	5458.125
2535.58458	5426.325
2538.30065	5410.725
2541.01501	5420.125
2543.72768	5404.725
2546.43864	5390.325
2549.14791	5379.725
2551.85548	5378.725
2554.56136	5378.925
2557.26554	5367.025
2559.96803	5366.425
2562.66883	5357.625
2565.36794	5332.725
2568.06536	5337.125
2570.7611	5327.825
2573.45514	5322.625
2576.14751	5309.725
2578.83819	5299.025
2581.52719	5300.225
2584.21451	5285.025
2586.90015	5266.625
2589.58411	5270.525
2592.2664	5245.225
2594.94701	5248.325
2597.62594	5224.625
2600.30321	5219.325
2602.9788	5216.525
2605.65273	5209.225
2608.32498	5201.225
2610.99557	5203.825
2613.66449	5195.225
2616.33175	5192.725
2618.99734	5186.925
2621.66128	5165.725
2624.32355	5162.125
2626.98416	5163.725
2629.64311	5162.625
2632.30041	5138.925
2634.95605	5154.825
2637.61004	5129.225
2640.26238	5128.125
2642.91306	5130.425
2645.56209	5107.025
2648.20948	5134.725
2650.85521	5117.425
2653.4993	5124.225
2656.14175	5098.825
2658.78255	5109.225
2661.42171	5109.425
2664.05923	5103.825
2666.6951	5103.025
2669.32934	5124.125
2671.96194	5115.925
2674.59291	5121.025
2677.22224	5101.125
2679.84993	5124.125
2682.476	5088.725
2685.10043	5100.725
2687.72324	5079.425
2690.34441	5073.725
2692.96396	5089.825
2695.58188	5102.725
2698.19818	5080.025
2700.81285	5091.925
2703.4259	5116.625
2706.03733	5157.225
2708.64714	5125.225
2711.25533	5109.025
2713.86191	5102.625
2716.46687	5104.825
2719.07021	5101.325
2721.67194	5084.925
2724.27206	5084.525
2726.87057	5089.325
2729.46747	5074.425
2732.06276	5079.125
2734.65644	5098.825
2737.24852	5090.425
2739.83899	5069.425
2742.42786	5074.825
2745.01513	5058.925
2747.60079	5055.225
2750.18486	5041.125
2752.76733	5044.025
2755.3482	5034.425
2757.92747	5026.125
2760.50515	5030.325
2763.08123	5036.525
2765.65573	5019.925
2768.22863	5016.025
2770.79994	5011.125
2773.36967	5015.625
2775.9378	5004.325
2778.50435	5000.025
2781.06932	4986.025
2783.6327	4980.425
2786.1945	4966.325
2788.75471	4968.125
2791.31335	4951.825
2793.87041	4942.125
2796.42589	4919.225
2798.97979	4927.925
2801.53212	4911.425
2804.08288	4907.025
2806.63206	4907.025
2809.17967	4883.925
2811.72571	4876.425
2814.27018	4882.725
2816.81308	4874.525
2819.35442	4861.125
2821.89419	4871.725
2824.43239	4864.525
2826.96904	4859.025
2829.50412	4856.125
2832.03763	4852.925
2834.56959	4836.925
2837.1	4824.425
2839.62884	4836.425
2842.15613	4834.925
2844.68186	4848.725
2847.20604	4864.525
2849.72867	4848.625
2852.24974	4850.225
2854.76927	4854.425
2857.28724	4870.925
2859.80367	4848.025
2862.31855	4840.825
2864.83189	4822.825
2867.34368	4816.625
2869.85393	4802.025
2872.36264	4799.325
2874.8698	4797.425
2877.37543	4790.925
2879.87952	4778.125
2882.38207	4799.625
2884.88308	4761.625
2887.38256	4776.325
2889.88051	4782.825
2892.37692	4795.125
2894.8718	4770.825
2897.36515	4781.025
2899.85698	4777.425
2902.34727	4794.425
2904.83604	4793.625
2907.32328	4801.625
2909.809	4803.125
2912.29319	4792.625
2914.77587	4807.125
2917.25702	4804.125
2919.73665	4800.025
2922.21476	4804.625
2924.69136	4819.325
2927.16644	4789.825
2929.64	4798.125
2932.11205	4800.425
2934.58258	4782.125
2937.05161	4800.825
2939.51912	4787.125
2941.98513	4777.225
2944.44962	4768.925
2946.91261	4760.225
2949.37409	4760.225
2951.83407	4747.325
2954.29254	4739.025
2956.74951	4724.525
2959.20498	4725.825
2961.65895	4676.625
2964.11142	4707.525
2966.56239	4675.925
2969.01186	4676.425
2971.45984	4657.225
2973.90632	4653.025
2976.35131	4639.525
2978.7948	4618.825
2981.23681	4603.825
2983.67732	4592.725
2986.11635	4593.025
2988.55388	4579.725
2990.98993	4550.625
2993.4245	4545.325
2995.85758	4537.825
2998.28917	4531.325
3000.71928	4525.025
3003.14791	4509.025
3005.57506	4513.925
3008.00073	4494.625
3010.42493	4498.525
3012.84764	4474.925
3015.26888	4484.125
3017.68865	4450.025
3020.10694	4450.225
3022.52376	4431.825
3024.9391	4427.625
3027.35298	4437.025
3029.76539	4427.625
3032.17632	4419.825
3034.5858	4401.325
3036.9938	4384.925
3039.40034	4388.225
3041.80542	4383.825
3044.20903	4384.725
3046.61118	4355.425
3049.01187	4348.225
3051.4111	4357.225
3053.80888	4344.325
3056.20519	4347.625
3058.60005	4331.525
3060.99345	4335.725
3063.3854	4314.125
3065.7759	4312.225
3068.16494	4298.225
3070.55254	4276.225
3072.93868	4261.625
3075.32338	4254.525
3077.70662	4249.625
3080.08842	4253.825
3082.46878	4240.025
3084.84769	4239.025
3087.22515	4242.325
3089.60118	4221.125
3091.97576	4221.625
3094.3489	4226.725
3096.72061	4227.825
3099.09087	4225.925
3101.4597	4198.625
3103.82709	4218.725
3106.19305	4214.025
3108.55757	4220.025
3110.92066	4189.725
3113.28232	4183.325
3115.64255	4188.325
3118.00134	4164.725
3120.35871	4159.525
3122.71466	4160.725
3125.06917	4165.225
3127.42226	4160.525
3129.77393	4146.325
3132.12417	4145.325
3134.47299	4149.725
3136.82039	4144.825
3139.16636	4133.725
3141.51092	4142.525
3143.85406	4144.725
3146.19579	4157.325
3148.53609	4157.925
3150.87499	4168.325
3153.21246	4163.425
3155.54853	4170.925
3157.88318	4169.525
3160.21642	4163.125
3162.54826	4162.025
3164.87868	4159.625
3167.2077	4150.825
3169.5353	4148.225
3171.86151	4143.425
3174.18631	4139.325
3176.5097	4132.225
3178.83169	4137.325
3181.15228	4139.825
3183.47147	4121.325
3185.78926	4140.625
3188.10565	4142.725
3190.42065	4132.625
3192.73424	4108.925
3195.04645	4123.625
3197.35725	4115.125
3199.66667	4129.825
3201.97469	4115.825
3204.28132	4130.325
3206.58656	4125.225
3208.8904	4134.325
3211.19287	4130.525
3213.49394	4118.525
3215.79363	4115.925
3218.09193	4131.625
3220.38884	4132.225
3222.68438	4151.425
3224.97853	4117.825
3227.2713	4126.625
3229.56269	4112.425
3231.8527	4109.925
3234.14133	4098.425
3236.42858	4088.425
3238.71446	4083.025
3240.99896	4066.525
3243.28209	4088.425
3245.56384	4074.425
3247.84423	4079.225
3250.12324	4071.325
3252.40088	4060.525
3254.67715	4065.825
3256.95205	4055.825
3259.22558	4058.725
3261.49775	4028.825
3263.76855	4030.825
3266.03799	4032.325
3268.30606	4011.225
3270.57277	4003.425
3272.83812	3993.825
3275.10211	3990.125
3277.36474	4004.525
3279.62601	3982.725
3281.88593	3985.325
3284.14448	3984.525
3286.40168	3984.525
3288.65753	3974.625
3290.91202	3972.325
3293.16516	3966.325
3295.41695	3955.825
3297.66738	3922.425
3299.91647	3904.925
3302.16421	3887.525
3304.4106	3869.625
3306.65564	3849.725
3308.89933	3823.025
3311.14169	3804.625
3313.38269	3777.425
3315.62236	3769.825
3317.86068	3737.125
3320.09766	3681.825
3322.3333	3650.025
3324.5676	3660.925
3326.80056	3612.925
3329.03219	3582.625
3331.26248	1.625
3333.49143	0.025
3335.71905	-0.675
