Data from AgNP_FTO_APTES_CRN_0uM_R6G_10uM_NaF_0.1M_Addition_RamanShift__39__12-15-12-944.txt Node

Date: Wed Dec 15 12:15:12 GMT 2021
User: TCL
Spectrometer: QEP01345
Trigger mode: 4
Integration Time (sec): 7.000000E0
Scans to average: 10
Electric dark correction enabled: true
Nonlinearity correction enabled: false
Boxcar width: 0
XAxis mode: Raman Shifts
Number of Pixels in Spectrum: 1044
>>>>>Begin Spectral Data<<<<<
46.04893	0.375
50.45542	-1.825
54.85868	-1.225
59.25871	-0.725
63.6555	106.175
68.04907	115.875
72.43941	121.875
76.82654	128.375
81.21044	133.875
85.59113	140.475
89.96862	147.775
94.34289	151.975
98.71396	158.975
103.08183	166.675
107.4465	163.975
111.80798	168.775
116.16626	173.775
120.52136	176.775
124.87327	178.375
129.222	181.475
133.56755	185.575
137.90993	197.775
142.24913	210.375
146.58517	219.375
150.91804	248.675
155.24774	277.875
159.57429	337.875
163.89768	411.975
168.21792	522.475
172.53501	695.975
176.84895	939.075
181.15975	1304.675
185.46741	1802.775
189.77193	2485.675
194.07331	3309.075
198.37157	4258.875
202.6667	5272.575
206.9587	6257.975
211.24758	7225.775
215.53334	8221.975
219.81599	9271.775
224.09553	10407.175
228.37195	11705.175
232.64527	13093.275
236.91549	14566.275
241.18261	15991.375
245.44663	17261.575
249.70755	18368.175
253.96539	19422.075
258.22014	20227.975
262.4718	21008.775
266.72039	21489.775
270.96589	21673.275
275.20832	21650.975
279.44768	21406.675
283.68397	21056.175
287.91719	20716.875
292.14735	20482.075
296.37445	20474.075
300.59849	20636.875
304.81948	20857.975
309.03742	21142.875
313.25231	21220.975
317.46415	21086.375
321.67296	20764.675
325.87872	20526.975
330.08145	20455.775
334.28114	20573.675
338.47781	20755.775
342.67145	20988.275
346.86207	21285.775
351.04966	21673.475
355.23424	22096.475
359.4158	22473.175
363.59435	22775.375
367.76989	22886.275
371.94243	22963.075
376.11196	23095.175
380.27849	23146.175
384.44203	23241.975
388.60257	23206.275
392.76012	23234.075
396.91468	23406.275
401.06626	23700.375
405.21485	24004.075
409.36047	24024.575
413.50311	23689.675
417.64277	23452.075
421.77947	23344.775
425.9132	23437.075
430.04396	23650.375
434.17176	23899.675
438.2966	24343.275
442.41849	25151.175
446.53742	26318.675
450.6534	27481.075
454.76644	28155.275
458.87653	27957.675
462.98368	27209.375
467.08789	26359.575
471.18916	25544.275
475.2875	24758.775
479.38291	24136.975
483.4754	23782.875
487.56496	23582.775
491.6516	23517.575
495.73531	23534.775
499.81612	23662.475
503.89401	23890.475
507.96899	23948.375
512.04106	24017.675
516.11023	24054.575
520.1765	24273.775
524.23987	24503.575
528.30034	24679.675
532.35792	24729.275
536.41261	24443.475
540.46441	23875.675
544.51333	23521.275
548.55936	23545.475
552.60252	23886.375
556.64279	24461.675
560.6802	24803.875
564.71473	24668.775
568.7464	24498.275
572.7752	24589.275
576.80114	24641.975
580.82422	24931.575
584.84444	25706.875
588.86181	27341.875
592.87633	29577.675
596.888	30823.575
600.89682	29937.075
604.9028	29379.875
608.90594	31322.975
612.90624	33935.275
616.90371	32477.075
620.89834	27583.775
624.89015	25183.775
628.87913	24756.375
632.86528	24505.275
636.84862	24152.475
640.82913	23667.675
644.80683	23130.775
648.78172	22851.875
652.75379	23011.775
656.72306	23534.175
660.68952	24095.875
664.65319	24014.375
668.61405	23571.875
672.57211	23515.275
676.52738	23592.475
680.47986	23443.775
684.42955	23278.875
688.37646	23232.275
692.32058	23410.875
696.26192	23784.775
700.20048	24163.175
704.13626	24261.275
708.06928	24101.875
711.99952	23941.375
715.927	24003.575
719.85171	24225.375
723.77365	24127.575
727.69284	23906.175
731.60928	23686.575
735.52295	23717.675
739.43388	23840.275
743.34206	23893.775
747.24749	23984.275
751.15017	24114.275
755.05012	24299.775
758.94733	24743.175
762.8418	25682.875
766.73354	27311.275
770.62254	29089.375
774.50882	29842.075
778.39237	29070.775
782.27321	27358.175
786.15132	25747.475
790.02671	24753.575
793.89938	24254.375
797.76935	24078.375
801.6366	24056.275
805.50115	23962.075
809.36299	23853.875
813.22213	23717.175
817.07857	23643.775
820.93231	23644.775
824.78336	23634.475
828.63172	23668.475
832.47738	23743.975
836.32036	23825.575
840.16066	23952.775
843.99827	24033.975
847.8332	23992.275
851.66546	23851.875
855.49504	23827.775
859.32195	23809.775
863.1462	23726.575
866.96777	23656.675
870.78668	23632.175
874.60293	23676.975
878.41652	23707.175
882.22745	23839.575
886.03573	23980.775
889.84136	24001.375
893.64433	23923.275
897.44466	23742.775
901.24235	23742.975
905.0374	23683.975
908.8298	23718.675
912.61957	23737.775
916.40671	23908.475
920.19121	24156.975
923.97308	24440.175
927.75233	24663.075
931.52895	24692.675
935.30295	24519.375
939.07433	24154.075
942.84309	23848.475
946.60924	23712.275
950.37278	23639.775
954.13371	23551.675
957.89203	23431.875
961.64774	23298.975
965.40086	23227.675
969.15137	23198.775
972.89929	23200.375
976.64461	23247.175
980.38733	23336.075
984.12747	23506.975
987.86502	23722.875
991.59999	24049.875
995.33237	24467.175
999.06217	25119.475
1002.78939	25869.575
1006.51404	26257.175
1010.23611	26472.175
1013.95561	26704.175
1017.67255	26742.575
1021.38692	26440.475
1025.09872	26045.675
1028.80796	26266.975
1032.51465	26940.775
1036.21877	27637.175
1039.92035	27691.475
1043.61937	27371.975
1047.31584	26827.975
1051.00976	26248.875
1054.70114	25916.875
1058.38998	25815.275
1062.07627	25832.775
1065.76003	25889.575
1069.44126	26006.675
1073.11995	26417.375
1076.79611	26840.175
1080.46974	27059.275
1084.14085	27124.675
1087.80943	27192.075
1091.47549	27065.475
1095.13903	26715.375
1098.80005	26209.375
1102.45857	25772.175
1106.11456	25651.975
1109.76805	25726.775
1113.41903	25856.775
1117.06751	26061.375
1120.71348	26237.875
1124.35696	26469.675
1127.99793	26632.075
1131.63641	26692.975
1135.2724	26389.475
1138.90589	26103.675
1142.5369	25892.375
1146.16542	25772.275
1149.79145	25762.075
1153.415	25731.975
1157.03607	25805.975
1160.65467	26154.575
1164.27079	26776.175
1167.88443	27874.975
1171.49561	29525.975
1175.10432	31818.975
1178.71056	34768.275
1182.31434	37459.675
1185.91565	38510.875
1189.51451	37775.175
1193.11091	35964.275
1196.70485	34118.275
1200.29634	32450.675
1203.88538	31125.875
1207.47197	30079.275
1211.05612	29298.275
1214.63782	28962.575
1218.21708	29204.175
1221.79391	29700.175
1225.36829	30171.075
1228.94024	29996.875
1232.50976	29266.675
1236.07685	28402.175
1239.6415	27927.775
1243.20374	27829.675
1246.76355	27984.575
1250.32093	28336.775
1253.8759	28947.675
1257.42845	29671.075
1260.97859	30385.075
1264.52631	31149.375
1268.07163	31959.875
1271.61453	32659.875
1275.15503	33352.575
1278.69312	34137.575
1282.22882	34779.175
1285.76211	35449.475
1289.29301	36284.175
1292.82151	37255.075
1296.34761	38498.975
1299.87133	40231.475
1303.39266	42554.875
1306.9116	45503.075
1310.42815	48682.475
1313.94233	50991.775
1317.45412	51107.475
1320.96354	49056.075
1324.47058	46060.175
1327.97525	43382.375
1331.47754	41451.975
1334.97747	40562.475
1338.47502	40175.375
1341.97022	39700.375
1345.46305	39345.475
1348.95352	39839.975
1352.44163	41673.675
1355.92738	44953.275
1359.41078	48998.275
1362.89183	52094.075
1366.37053	51910.775
1369.84688	47508.275
1373.32088	41492.075
1376.79254	37289.575
1380.26186	35525.075
1383.72883	35098.375
1387.19347	34669.475
1390.65578	33760.075
1394.11575	33016.175
1397.57339	32827.075
1401.0287	33185.875
1404.48168	33512.675
1407.93234	33766.975
1411.38068	33904.075
1414.82669	33905.975
1418.27039	33474.675
1421.71177	32716.275
1425.15083	31957.975
1428.58758	31600.275
1432.02203	31988.275
1435.45416	32725.575
1438.88399	33384.275
1442.31151	33694.875
1445.73673	33838.975
1449.15965	33846.075
1452.58027	33455.975
1455.9986	32762.475
1459.41463	32198.175
1462.82837	32415.875
1466.23982	33234.975
1469.64898	34262.675
1473.05586	35070.975
1476.46045	35752.575
1479.86276	36321.375
1483.26279	36580.075
1486.66054	36775.475
1490.05602	37101.975
1493.44922	37389.475
1496.84016	37179.575
1500.22882	37141.375
1503.61521	37642.775
1506.99934	38692.375
1510.38121	39647.475
1513.76081	40177.475
1517.13816	39490.675
1520.51324	37787.375
1523.88607	36027.975
1527.25665	34986.375
1530.62498	34567.575
1533.99105	34350.975
1537.35488	34122.975
1540.71647	33798.875
1544.07581	33515.175
1547.4329	33089.475
1550.78776	32583.475
1554.14038	32090.975
1557.49077	31713.975
1560.83892	31426.975
1564.18484	31397.175
1567.52853	31613.775
1570.86999	32023.575
1574.20922	32514.675
1577.54624	33007.275
1580.88103	33014.675
1584.2136	32734.475
1587.54395	33050.675
1590.87208	34372.375
1594.19801	36665.075
1597.52172	39621.075
1600.84321	41529.575
1604.16251	40789.075
1607.47959	37907.675
1610.79447	34176.475
1614.10715	30908.575
1617.41763	28753.875
1620.7259	27573.675
1624.03199	27119.275
1627.33587	27240.375
1630.63757	27895.575
1633.93707	29151.375
1637.23439	31171.475
1640.52951	34299.675
1643.82246	38338.975
1647.11321	41718.775
1650.40179	42249.675
1653.68819	39269.575
1656.97241	34401.775
1660.25446	30106.375
1663.53433	27302.175
1666.81203	25729.275
1670.08756	24794.075
1673.36092	24228.375
1676.63211	23847.975
1679.90115	23582.475
1683.16801	23342.075
1686.43272	23201.375
1689.69527	23181.175
1692.95567	23083.475
1696.2139	22950.975
1699.46999	22982.275
1702.72392	22942.275
1705.97571	22926.375
1709.22535	22955.975
1712.47284	22927.075
1715.71819	22933.675
1718.96139	22909.375
1722.20246	22891.375
1725.44139	22838.175
1728.67818	22722.675
1731.91284	22653.975
1735.14537	22526.075
1738.37576	22512.875
1741.60403	22419.275
1744.83017	22361.375
1748.05418	22379.875
1751.27607	22312.075
1754.49584	22318.575
1757.71349	22308.975
1760.92903	22253.175
1764.14244	22290.475
1767.35375	22262.575
1770.56294	22246.175
1773.77002	22225.175
1776.97499	22257.475
1780.17785	22257.975
1783.37861	22216.875
1786.57727	22181.675
1789.77382	22147.475
1792.96828	22134.575
1796.16064	22096.175
1799.3509	22085.975
1802.53907	22073.175
1805.72514	21983.675
1808.90913	21974.775
1812.09102	21920.375
1815.27083	21885.375
1818.44856	21885.475
1821.6242	21885.775
1824.79776	21839.275
1827.96924	21836.775
1831.13864	21837.175
1834.30597	21837.875
1837.47122	21804.875
1840.6344	21807.775
1843.7955	21799.275
1846.95454	21792.775
1850.11151	21767.975
1853.26642	21740.375
1856.41926	21756.275
1859.57004	21726.475
1862.71876	21734.375
1865.86542	21714.075
1869.01003	21714.975
1872.15258	21737.075
1875.29308	21703.375
1878.43152	21667.475
1881.56792	21720.775
1884.70227	21708.975
1887.83457	21705.675
1890.96482	21665.575
1894.09304	21669.475
1897.21921	21700.475
1900.34335	21645.975
1903.46544	21665.775
1906.58551	21657.075
1909.70353	21653.975
1912.81953	21667.175
1915.93349	21622.075
1919.04543	21568.675
1922.15534	21532.675
1925.26322	21540.675
1928.36908	21480.075
1931.47292	21448.875
1934.57473	21414.975
1937.67453	21351.875
1940.77232	21335.575
1943.86808	21277.875
1946.96184	21234.775
1950.05358	21192.575
1953.14331	21134.675
1956.23103	21075.275
1959.31675	21071.075
1962.40046	21064.075
1965.48217	20978.775
1968.56188	20958.475
1971.63959	20871.375
1974.7153	20826.575
1977.78901	20806.675
1980.86073	20763.075
1983.93046	20682.975
1986.99819	20621.975
1990.06394	20524.175
1993.1277	20535.675
1996.18947	20494.475
1999.24925	20422.575
2002.30706	20390.375
2005.36288	20325.775
2008.41672	20346.175
2011.46859	20240.075
2014.51848	20190.975
2017.56639	20167.875
2020.61233	20141.875
2023.6563	20107.375
2026.6983	20048.975
2029.73833	19995.075
2032.7764	19979.275
2035.8125	19956.975
2038.84664	19943.275
2041.87881	19943.975
2044.90903	19880.475
2047.93729	19874.475
2050.96359	19881.475
2053.98794	19834.175
2057.01034	19817.075
2060.03078	19831.375
2063.04927	19801.975
2066.06582	19807.475
2069.08042	19802.675
2072.09307	19827.375
2075.10378	19786.075
2078.11255	19763.575
2081.11938	19805.175
2084.12426	19782.475
2087.12722	19756.575
2090.12824	19739.975
2093.12732	19735.175
2096.12447	19755.875
2099.11969	19788.975
2102.11299	19769.075
2105.10435	19801.675
2108.09379	19827.775
2111.08131	19823.775
2114.0669	19828.275
2117.05057	19833.775
2120.03233	19846.875
2123.01216	19850.875
2125.99008	19916.975
2128.96609	19922.475
2131.94018	19938.575
2134.91236	19958.075
2137.88263	20004.175
2140.851	20023.875
2143.81746	20041.175
2146.78201	20041.275
2149.74466	20072.375
2152.7054	20050.775
2155.66425	20045.275
2158.6212	20068.475
2161.57625	20098.175
2164.52941	20085.075
2167.48067	20097.575
2170.43004	20098.675
2173.37752	20072.775
2176.32311	20067.275
2179.26681	20043.675
2182.20863	20054.775
2185.14856	20121.275
2188.08661	20109.575
2191.02278	20125.975
2193.95707	20119.675
2196.88948	20131.575
2199.82001	20161.675
2202.74867	20156.275
2205.67545	20148.275
2208.60037	20120.175
2211.52341	20071.775
2214.44458	20130.575
2217.36388	20044.775
2220.28132	20019.675
2223.1969	20022.675
2226.11061	19983.875
2229.02246	19922.275
2231.93245	19881.275
2234.84058	19899.475
2237.74686	19847.175
2240.65128	19890.975
2243.55385	19814.775
2246.45456	19784.675
2249.35343	19796.575
2252.25044	19719.175
2255.14561	19721.475
2258.03893	19739.975
2260.93041	19699.975
2263.82004	19669.275
2266.70783	19607.575
2269.59378	19553.975
2272.4779	19515.175
2275.36017	19506.075
2278.24061	19473.175
2281.11922	19453.275
2283.996	19403.875
2286.87094	19394.375
2289.74405	19351.875
2292.61534	19361.175
2295.4848	19328.375
2298.35243	19318.975
2301.21824	19375.875
2304.08223	19395.875
2306.94439	19388.475
2309.80474	19391.875
2312.66327	19399.475
2315.51999	19381.875
2318.37489	19392.575
2321.22797	19369.875
2324.07925	19343.675
2326.92871	19310.375
2329.77637	19327.175
2332.62222	19292.775
2335.46626	19311.075
2338.3085	19277.275
2341.14893	19317.375
2343.98756	19301.475
2346.8244	19270.575
2349.65943	19244.075
2352.49267	19259.175
2355.32411	19250.975
2358.15376	19234.475
2360.98161	19165.675
2363.80768	19149.775
2366.63195	19192.075
2369.45444	19150.375
2372.27514	19128.575
2375.09405	19081.275
2377.91118	19079.775
2380.72652	19057.975
2383.54009	19014.775
2386.35187	18993.275
2389.16188	18930.375
2391.97011	18938.675
2394.77657	18966.475
2397.58125	18909.375
2400.38416	18857.275
2403.18529	18817.675
2405.98466	18767.075
2408.78226	18782.175
2411.57809	18735.075
2414.37216	18720.875
2417.16446	18722.075
2419.955	18666.075
2422.74378	18649.675
2425.5308	18666.975
2428.31606	18650.775
2431.09956	18607.875
2433.88131	18531.075
2436.6613	18564.375
2439.43954	18589.975
2442.21603	18559.675
2444.99077	18529.275
2447.76377	18557.575
2450.53501	18508.675
2453.30451	18538.675
2456.07226	18520.475
2458.83827	18509.675
2461.60254	18500.075
2464.36507	18520.275
2467.12586	18497.875
2469.88492	18478.975
2472.64224	18508.475
2475.39782	18513.675
2478.15167	18500.075
2480.90379	18486.675
2483.65417	18499.875
2486.40283	18504.875
2489.14976	18504.975
2491.89497	18509.075
2494.63845	18474.575
2497.3802	18519.775
2500.12024	18502.075
2502.85855	18529.675
2505.59514	18455.475
2508.33002	18443.175
2511.06318	18401.375
2513.79462	18373.075
2516.52435	18388.175
2519.25237	18342.775
2521.97867	18329.575
2524.70327	18355.575
2527.42616	18324.375
2530.14734	18351.075
2532.86681	18318.975
2535.58458	18335.875
2538.30065	18267.875
2541.01501	18287.175
2543.72768	18252.975
2546.43864	18243.275
2549.14791	18248.075
2551.85548	18228.175
2554.56136	18234.175
2557.26554	18127.375
2559.96803	18130.775
2562.66883	18116.975
2565.36794	18137.575
2568.06536	18117.975
2570.7611	18111.875
2573.45514	18088.775
2576.14751	18107.075
2578.83819	18051.675
2581.52719	18053.675
2584.21451	18025.675
2586.90015	18007.075
2589.58411	17988.475
2592.2664	17967.175
2594.94701	17934.375
2597.62594	17909.875
2600.30321	17910.775
2602.9788	17891.875
2605.65273	17858.075
2608.32498	17866.275
2610.99557	17808.875
2613.66449	17827.175
2616.33175	17848.375
2618.99734	17825.575
2621.66128	17782.375
2624.32355	17823.075
2626.98416	17814.075
2629.64311	17806.375
2632.30041	17759.575
2634.95605	17754.375
2637.61004	17708.675
2640.26238	17753.075
2642.91306	17731.175
2645.56209	17702.875
2648.20948	17659.275
2650.85521	17624.275
2653.4993	17660.875
2656.14175	17671.775
2658.78255	17674.275
2661.42171	17682.375
2664.05923	17708.975
2666.6951	17685.675
2669.32934	17695.775
2671.96194	17720.875
2674.59291	17707.375
2677.22224	17690.575
2679.84993	17698.675
2682.476	17672.975
2685.10043	17683.175
2687.72324	17681.675
2690.34441	17686.275
2692.96396	17651.975
2695.58188	17690.975
2698.19818	17703.975
2700.81285	17674.275
2703.4259	17667.875
2706.03733	17728.875
2708.64714	17687.075
2711.25533	17719.875
2713.86191	17700.575
2716.46687	17769.275
2719.07021	17762.075
2721.67194	17768.275
2724.27206	17729.375
2726.87057	17756.275
2729.46747	17734.675
2732.06276	17820.275
2734.65644	17799.275
2737.24852	17803.575
2739.83899	17773.375
2742.42786	17790.975
2745.01513	17746.275
2747.60079	17770.275
2750.18486	17734.075
2752.76733	17748.875
2755.3482	17724.075
2757.92747	17787.575
2760.50515	17732.975
2763.08123	17728.175
2765.65573	17735.375
2768.22863	17743.975
2770.79994	17739.875
2773.36967	17709.575
2775.9378	17673.375
2778.50435	17680.775
2781.06932	17665.175
2783.6327	17643.775
2786.1945	17645.775
2788.75471	17639.275
2791.31335	17642.075
2793.87041	17603.575
2796.42589	17586.075
2798.97979	17554.375
2801.53212	17513.275
2804.08288	17494.975
2806.63206	17457.475
2809.17967	17471.775
2811.72571	17428.775
2814.27018	17421.175
2816.81308	17409.375
2819.35442	17395.675
2821.89419	17387.875
2824.43239	17365.375
2826.96904	17378.575
2829.50412	17378.575
2832.03763	17391.575
2834.56959	17379.375
2837.1	17368.575
2839.62884	17375.575
2842.15613	17364.175
2844.68186	17405.575
2847.20604	17446.475
2849.72867	17468.575
2852.24974	17463.775
2854.76927	17502.675
2857.28724	17469.675
2859.80367	17474.575
2862.31855	17485.475
2864.83189	17470.375
2867.34368	17458.675
2869.85393	17480.975
2872.36264	17465.975
2874.8698	17444.075
2877.37543	17468.975
2879.87952	17537.675
2882.38207	17517.775
2884.88308	17507.675
2887.38256	17530.275
2889.88051	17586.675
2892.37692	17601.675
2894.8718	17593.075
2897.36515	17584.375
2899.85698	17573.075
2902.34727	17613.475
2904.83604	17605.675
2907.32328	17661.475
2909.809	17647.675
2912.29319	17644.075
2914.77587	17657.275
2917.25702	17645.575
2919.73665	17623.075
2922.21476	17623.975
2924.69136	17613.775
2927.16644	17575.475
2929.64	17541.075
2932.11205	17515.975
2934.58258	17437.675
2937.05161	17475.775
2939.51912	17468.875
2941.98513	17427.875
2944.44962	17344.275
2946.91261	17268.375
2949.37409	17271.275
2951.83407	17210.575
2954.29254	17199.075
2956.74951	17199.475
2959.20498	17160.875
2961.65895	17156.775
2964.11142	17113.275
2966.56239	17073.375
2969.01186	17054.275
2971.45984	16996.975
2973.90632	16948.575
2976.35131	16901.675
2978.7948	16899.475
2981.23681	16850.475
2983.67732	16826.675
2986.11635	16736.375
2988.55388	16727.175
2990.98993	16688.075
2993.4245	16688.975
2995.85758	16621.075
2998.28917	16591.175
3000.71928	16593.575
3003.14791	16521.875
3005.57506	16470.875
3008.00073	16458.675
3010.42493	16478.475
3012.84764	16482.875
3015.26888	16483.275
3017.68865	16433.175
3020.10694	16439.475
3022.52376	16403.075
3024.9391	16392.775
3027.35298	16357.975
3029.76539	16351.375
3032.17632	16325.475
3034.5858	16284.075
3036.9938	16244.275
3039.40034	16266.275
3041.80542	16241.575
3044.20903	16226.675
3046.61118	16217.175
3049.01187	16183.575
3051.4111	16151.275
3053.80888	16146.775
3056.20519	16142.175
3058.60005	16093.975
3060.99345	16085.075
3063.3854	16096.275
3065.7759	16030.275
3068.16494	16061.875
3070.55254	16014.375
3072.93868	15999.575
3075.32338	15927.375
3077.70662	15880.075
3080.08842	15831.875
3082.46878	15885.075
3084.84769	15869.375
3087.22515	15845.275
3089.60118	15924.375
3091.97576	15908.375
3094.3489	15862.975
3096.72061	15854.975
3099.09087	15845.175
3101.4597	15844.975
3103.82709	15845.575
3106.19305	15779.975
3108.55757	15800.475
3110.92066	15766.075
3113.28232	15750.575
3115.64255	15725.675
3118.00134	15716.775
3120.35871	15679.075
3122.71466	15620.275
3125.06917	15647.775
3127.42226	15620.875
3129.77393	15640.075
3132.12417	15628.175
3134.47299	15649.575
3136.82039	15651.675
3139.16636	15671.975
3141.51092	15665.275
3143.85406	15665.375
3146.19579	15653.575
3148.53609	15643.075
3150.87499	15656.975
3153.21246	15662.575
3155.54853	15688.275
3157.88318	15683.075
3160.21642	15675.775
3162.54826	15656.575
3164.87868	15668.575
3167.2077	15641.075
3169.5353	15649.575
3171.86151	15660.375
3174.18631	15623.775
3176.5097	15650.075
3178.83169	15613.175
3181.15228	15619.875
3183.47147	15566.975
3185.78926	15604.675
3188.10565	15645.175
3190.42065	15577.375
3192.73424	15604.775
3195.04645	15597.875
3197.35725	15597.175
3199.66667	15602.175
3201.97469	15631.675
3204.28132	15570.875
3206.58656	15627.575
3208.8904	15626.275
3211.19287	15600.775
3213.49394	15606.275
3215.79363	15638.575
3218.09193	15635.875
3220.38884	15651.175
3222.68438	15620.575
3224.97853	15585.975
3227.2713	15628.775
3229.56269	15590.975
3231.8527	15612.475
3234.14133	15530.175
3236.42858	15537.875
3238.71446	15532.275
3240.99896	15484.575
3243.28209	15487.275
3245.56384	15473.875
3247.84423	15535.675
3250.12324	15536.575
3252.40088	15529.475
3254.67715	15498.675
3256.95205	15481.575
3259.22558	15477.375
3261.49775	15444.175
3263.76855	15433.375
3266.03799	15393.275
3268.30606	15425.075
3270.57277	15379.975
3272.83812	15361.475
3275.10211	15338.675
3277.36474	15364.475
3279.62601	15370.075
3281.88593	15345.975
3284.14448	15357.075
3286.40168	15329.475
3288.65753	15335.575
3290.91202	15284.975
3293.16516	15245.075
3295.41695	15223.475
3297.66738	15144.475
3299.91647	15078.275
3302.16421	14997.075
3304.4106	14953.975
3306.65564	14865.775
3308.89933	14791.475
3311.14169	14690.875
3313.38269	14607.175
3315.62236	14552.075
3317.86068	14408.275
3320.09766	14269.975
3322.3333	14163.475
3324.5676	14179.375
3326.80056	13941.775
3329.03219	13887.075
3331.26248	4.075
3333.49143	-0.025
3335.71905	-1.025
