Data from AgNP_FTO_APTES_CRN_0uM_R6G_10uM_NaF_0.1M_Addition_RamanShift__61__12-40-52-973.txt Node

Date: Wed Dec 15 12:40:52 GMT 2021
User: TCL
Spectrometer: QEP01345
Trigger mode: 4
Integration Time (sec): 7.000000E0
Scans to average: 10
Electric dark correction enabled: true
Nonlinearity correction enabled: false
Boxcar width: 0
XAxis mode: Raman Shifts
Number of Pixels in Spectrum: 1044
>>>>>Begin Spectral Data<<<<<
46.04893	0.6125
50.45542	-2.3875
54.85868	-1.6875
59.25871	-0.9875
63.6555	135.2125
68.04907	144.9125
72.43941	151.5125
76.82654	160.2125
81.21044	164.4125
85.59113	172.4125
89.96862	183.3125
94.34289	182.7125
98.71396	191.0125
103.08183	200.7125
107.4465	201.7125
111.80798	207.8125
116.16626	211.3125
120.52136	217.0125
124.87327	224.9125
129.222	235.0125
133.56755	244.4125
137.90993	267.4125
142.24913	284.0125
146.58517	308.4125
150.91804	358.9125
155.24774	416.5125
159.57429	513.6125
163.89768	660.0125
168.21792	861.9125
172.53501	1165.5125
176.84895	1618.2125
181.15975	2241.6125
185.46741	3128.7125
189.77193	4315.7125
194.07331	5755.6125
198.37157	7367.2125
202.6667	9111.4125
206.9587	10801.5125
211.24758	12489.2125
215.53334	14188.6125
219.81599	15983.1125
224.09553	18031.5125
228.37195	20286.4125
232.64527	22754.1125
236.91549	25316.7125
241.18261	27863.7125
245.44663	30094.9125
249.70755	32099.2125
253.96539	33752.8125
258.22014	35189.0125
262.4718	36418.4125
266.72039	37285.9125
270.96589	37710.6125
275.20832	37715.9125
279.44768	37436.4125
283.68397	37051.3125
287.91719	36667.0125
292.14735	36393.1125
296.37445	36474.5125
300.59849	36671.5125
304.81948	37076.5125
309.03742	37273.9125
313.25231	37074.8125
317.46415	36312.1125
321.67296	35187.4125
325.87872	34179.0125
330.08145	33754.3125
334.28114	33770.6125
338.47781	34069.5125
342.67145	34519.9125
346.86207	35246.1125
351.04966	36168.6125
355.23424	37186.6125
359.4158	38028.9125
363.59435	38614.3125
367.76989	38919.8125
371.94243	39057.5125
376.11196	39097.0125
380.27849	39122.6125
384.44203	39201.9125
388.60257	39374.5125
392.76012	39607.5125
396.91468	40116.7125
401.06626	40892.3125
405.21485	41459.9125
409.36047	41298.3125
413.50311	40487.0125
417.64277	39937.4125
421.77947	39652.6125
425.9132	39711.0125
430.04396	39922.6125
434.17176	40150.9125
438.2966	40577.3125
442.41849	41354.3125
446.53742	42555.2125
450.6534	43883.6125
454.76644	44909.2125
458.87653	45221.0125
462.98368	45032.4125
467.08789	44263.3125
471.18916	43306.4125
475.2875	42384.0125
479.38291	41851.0125
483.4754	41447.7125
487.56496	40905.9125
491.6516	40445.6125
495.73531	40070.3125
499.81612	39940.2125
503.89401	40254.8125
507.96899	40514.1125
512.04106	40568.9125
516.11023	40556.2125
520.1765	40515.7125
524.23987	40345.6125
528.30034	40054.5125
532.35792	39543.8125
536.41261	38878.5125
540.46441	38119.5125
544.51333	37911.1125
548.55936	38258.2125
552.60252	39056.1125
556.64279	39925.4125
560.6802	40382.5125
564.71473	40707.1125
568.7464	41408.9125
572.7752	42387.5125
576.80114	43085.0125
580.82422	43827.4125
584.84444	44754.6125
588.86181	45769.4125
592.87633	46923.5125
596.888	47888.0125
600.89682	48582.8125
604.9028	50661.6125
608.90594	55848.2125
612.90624	60590.0125
616.90371	56371.2125
620.89834	46163.1125
624.89015	41834.4125
628.87913	41486.0125
632.86528	41408.1125
636.84862	40817.2125
640.82913	39803.4125
644.80683	38440.6125
648.78172	37410.7125
652.75379	37343.4125
656.72306	38078.7125
660.68952	38943.9125
664.65319	38754.7125
668.61405	37843.2125
672.57211	37532.2125
676.52738	37464.5125
680.47986	37345.1125
684.42955	37056.5125
688.37646	36966.2125
692.32058	37182.2125
696.26192	37690.5125
700.20048	38322.8125
704.13626	38531.7125
708.06928	38339.7125
711.99952	38122.1125
715.927	38212.5125
719.85171	38339.0125
723.77365	38058.6125
727.69284	37459.0125
731.60928	36899.9125
735.52295	36733.0125
739.43388	36815.0125
743.34206	36972.7125
747.24749	37257.0125
751.15017	37648.2125
755.05012	38361.3125
758.94733	39605.6125
762.8418	42057.7125
766.73354	45838.4125
770.62254	49529.3125
774.50882	50459.9125
778.39237	47870.1125
782.27321	43826.2125
786.15132	40487.8125
790.02671	38544.6125
793.89938	37648.5125
797.76935	37401.9125
801.6366	37287.4125
805.50115	37158.7125
809.36299	36788.6125
813.22213	36495.5125
817.07857	36313.2125
820.93231	36198.4125
824.78336	36100.7125
828.63172	36063.0125
832.47738	36146.8125
836.32036	36369.4125
840.16066	36625.6125
843.99827	36850.8125
847.8332	36776.7125
851.66546	36455.8125
855.49504	36323.8125
859.32195	36295.5125
863.1462	36071.6125
866.96777	35828.8125
870.78668	35694.4125
874.60293	35693.7125
878.41652	35680.1125
882.22745	35837.8125
886.03573	36010.0125
889.84136	35950.0125
893.64433	35746.7125
897.44466	35551.5125
901.24235	35464.0125
905.0374	35389.2125
908.8298	35324.7125
912.61957	35449.0125
916.40671	35883.1125
920.19121	36526.6125
923.97308	37260.5125
927.75233	37767.3125
931.52895	37661.6125
935.30295	37106.7125
939.07433	36154.7125
942.84309	35504.8125
946.60924	35269.2125
950.37278	35230.8125
954.13371	34946.5125
957.89203	34655.3125
961.64774	34548.7125
965.40086	34416.0125
969.15137	34341.2125
972.89929	34230.8125
976.64461	34216.3125
980.38733	34300.0125
984.12747	34588.8125
987.86502	35047.1125
991.59999	35722.9125
995.33237	36840.5125
999.06217	38467.6125
1002.78939	40367.9125
1006.51404	41427.0125
1010.23611	41982.5125
1013.95561	42272.0125
1017.67255	42018.7125
1021.38692	41287.0125
1025.09872	40891.4125
1028.80796	41663.8125
1032.51465	43711.8125
1036.21877	45505.1125
1039.92035	45770.6125
1043.61937	44704.7125
1047.31584	42773.5125
1051.00976	40922.4125
1054.70114	39900.6125
1058.38998	39755.2125
1062.07627	40018.7125
1065.76003	40429.9125
1069.44126	41233.8125
1073.11995	42421.8125
1076.79611	43501.8125
1080.46974	43970.4125
1084.14085	44018.4125
1087.80943	44002.7125
1091.47549	43801.7125
1095.13903	43264.8125
1098.80005	42243.4125
1102.45857	41080.2125
1106.11456	40302.0125
1109.76805	40039.2125
1113.41903	40212.7125
1117.06751	40417.2125
1120.71348	40801.9125
1124.35696	41205.2125
1127.99793	41730.6125
1131.63641	42016.5125
1135.2724	41785.3125
1138.90589	41494.2125
1142.5369	41279.2125
1146.16542	41072.3125
1149.79145	41087.8125
1153.415	41327.8125
1157.03607	41892.9125
1160.65467	42960.5125
1164.27079	44767.7125
1167.88443	47419.2125
1171.49561	50849.5125
1175.10432	55535.2125
1178.71056	61439.6125
1182.31434	66947.8125
1185.91565	69642.8125
1189.51451	68862.7125
1193.11091	65638.0125
1196.70485	61687.1125
1200.29634	58392.3125
1203.88538	56093.5125
1207.47197	54495.1125
1211.05612	53313.9125
1214.63782	52498.7125
1218.21708	52113.4125
1221.79391	52067.0125
1225.36829	52140.7125
1228.94024	51741.3125
1232.50976	50461.2125
1236.07685	49307.5125
1239.6415	48654.9125
1243.20374	48446.9125
1246.76355	48766.5125
1250.32093	49646.9125
1253.8759	51050.6125
1257.42845	52783.0125
1260.97859	54561.1125
1264.52631	56310.8125
1268.07163	58151.5125
1271.61453	60247.5125
1275.15503	62516.3125
1278.69312	64855.5125
1282.22882	66882.2125
1285.76211	68619.5125
1289.29301	70280.5125
1292.82151	72293.4125
1296.34761	75149.0125
1299.87133	79259.8125
1303.39266	84859.1125
1306.9116	91471.7125
1310.42815	97967.3125
1313.94233	102131.5125
1317.45412	102104.4125
1320.96354	99254.4125
1324.47058	95471.8125
1327.97525	92200.5125
1331.47754	89646.8125
1334.97747	88048.7125
1338.47502	87017.2125
1341.97022	85674.6125
1345.46305	84185.6125
1348.95352	82875.5125
1352.44163	83056.8125
1355.92738	85963.5125
1359.41078	91885.2125
1362.89183	97522.9125
1366.37053	96898.3125
1369.84688	88648.1125
1373.32088	78295.4125
1376.79254	70791.0125
1380.26186	67445.4125
1383.72883	66515.5125
1387.19347	65844.8125
1390.65578	64600.2125
1394.11575	63814.1125
1397.57339	64156.8125
1401.0287	65437.6125
1404.48168	66605.3125
1407.93234	67041.3125
1411.38068	66468.3125
1414.82669	64787.7125
1418.27039	62365.1125
1421.71177	59828.1125
1425.15083	57685.2125
1428.58758	56600.5125
1432.02203	56876.7125
1435.45416	58202.9125
1438.88399	59851.2125
1442.31151	61229.3125
1445.73673	62215.6125
1449.15965	62946.7125
1452.58027	63170.6125
1455.9986	62938.8125
1459.41463	63110.7125
1462.82837	64160.4125
1466.23982	65788.7125
1469.64898	67406.3125
1473.05586	68307.8125
1476.46045	68551.1125
1479.86276	68397.2125
1483.26279	67831.5125
1486.66054	67362.3125
1490.05602	67456.7125
1493.44922	67846.2125
1496.84016	68454.3125
1500.22882	69695.0125
1503.61521	71901.9125
1506.99934	74841.6125
1510.38121	77489.3125
1513.76081	78482.6125
1517.13816	76872.4125
1520.51324	73313.9125
1523.88607	69741.0125
1527.25665	67576.0125
1530.62498	66382.0125
1533.99105	65793.7125
1537.35488	65307.0125
1540.71647	64550.6125
1544.07581	63521.4125
1547.4329	62408.8125
1550.78776	61180.0125
1554.14038	60263.5125
1557.49077	59775.4125
1560.83892	59421.6125
1564.18484	59443.9125
1567.52853	59768.7125
1570.86999	60621.0125
1574.20922	62060.7125
1577.54624	63638.8125
1580.88103	64392.5125
1584.2136	64936.3125
1587.54395	66264.2125
1590.87208	69177.4125
1594.19801	73663.8125
1597.52172	78592.2125
1600.84321	80168.2125
1604.16251	76156.5125
1607.47959	69011.8125
1610.79447	61660.2125
1614.10715	55438.7125
1617.41763	50872.7125
1620.7259	47939.1125
1624.03199	46612.2125
1627.33587	46820.5125
1630.63757	48541.6125
1633.93707	51975.4125
1637.23439	57448.6125
1640.52951	64639.2125
1643.82246	72741.4125
1647.11321	78908.4125
1650.40179	79642.5125
1653.68819	73901.6125
1656.97241	63889.1125
1660.25446	53951.9125
1663.53433	46696.8125
1666.81203	42133.9125
1670.08756	39299.4125
1673.36092	37468.0125
1676.63211	36273.2125
1679.90115	35477.1125
1683.16801	34869.2125
1686.43272	34375.0125
1689.69527	34130.5125
1692.95567	33918.4125
1696.2139	33722.7125
1699.46999	33581.8125
1702.72392	33510.3125
1705.97571	33443.8125
1709.22535	33384.2125
1712.47284	33314.2125
1715.71819	33286.2125
1718.96139	33190.7125
1722.20246	33057.2125
1725.44139	32901.4125
1728.67818	32715.8125
1731.91284	32503.3125
1735.14537	32313.5125
1738.37576	32166.0125
1741.60403	32001.2125
1744.83017	31912.7125
1748.05418	31826.8125
1751.27607	31778.1125
1754.49584	31720.2125
1757.71349	31631.0125
1760.92903	31628.2125
1764.14244	31573.9125
1767.35375	31594.3125
1770.56294	31530.0125
1773.77002	31517.8125
1776.97499	31505.7125
1780.17785	31478.8125
1783.37861	31383.1125
1786.57727	31350.8125
1789.77382	31310.2125
1792.96828	31268.5125
1796.16064	31199.1125
1799.3509	31119.1125
1802.53907	31135.2125
1805.72514	31024.5125
1808.90913	30917.6125
1812.09102	30858.1125
1815.27083	30805.8125
1818.44856	30750.5125
1821.6242	30748.3125
1824.79776	30704.0125
1827.96924	30704.9125
1831.13864	30658.2125
1834.30597	30690.6125
1837.47122	30677.6125
1840.6344	30703.1125
1843.7955	30705.5125
1846.95454	30686.4125
1850.11151	30701.3125
1853.26642	30631.2125
1856.41926	30679.9125
1859.57004	30664.6125
1862.71876	30631.9125
1865.86542	30582.1125
1869.01003	30618.2125
1872.15258	30628.1125
1875.29308	30595.1125
1878.43152	30556.7125
1881.56792	30611.7125
1884.70227	30644.8125
1887.83457	30643.6125
1890.96482	30644.4125
1894.09304	30625.6125
1897.21921	30596.4125
1900.34335	30592.4125
1903.46544	30591.2125
1906.58551	30630.8125
1909.70353	30600.3125
1912.81953	30581.7125
1915.93349	30518.6125
1919.04543	30408.0125
1922.15534	30385.2125
1925.26322	30310.7125
1928.36908	30188.2125
1931.47292	30200.4125
1934.57473	30035.2125
1937.67453	29958.9125
1940.77232	29914.5125
1943.86808	29752.6125
1946.96184	29617.2125
1950.05358	29559.3125
1953.14331	29409.9125
1956.23103	29341.4125
1959.31675	29306.8125
1962.40046	29244.8125
1965.48217	29166.1125
1968.56188	29070.5125
1971.63959	28978.2125
1974.7153	28967.6125
1977.78901	28848.1125
1980.86073	28787.1125
1983.93046	28681.2125
1986.99819	28546.9125
1990.06394	28489.1125
1993.1277	28434.8125
1996.18947	28330.1125
1999.24925	28225.0125
2002.30706	28174.3125
2005.36288	28129.0125
2008.41672	28091.8125
2011.46859	27949.8125
2014.51848	27917.2125
2017.56639	27895.3125
2020.61233	27828.0125
2023.6563	27745.8125
2026.6983	27697.9125
2029.73833	27710.4125
2032.7764	27670.6125
2035.8125	27631.4125
2038.84664	27603.0125
2041.87881	27591.0125
2044.90903	27524.1125
2047.93729	27518.0125
2050.96359	27463.7125
2053.98794	27437.2125
2057.01034	27418.6125
2060.03078	27405.6125
2063.04927	27386.3125
2066.06582	27351.2125
2069.08042	27429.4125
2072.09307	27332.3125
2075.10378	27318.5125
2078.11255	27311.2125
2081.11938	27274.1125
2084.12426	27213.0125
2087.12722	27196.5125
2090.12824	27175.1125
2093.12732	27205.3125
2096.12447	27212.6125
2099.11969	27245.3125
2102.11299	27228.9125
2105.10435	27215.6125
2108.09379	27280.0125
2111.08131	27259.1125
2114.0669	27291.2125
2117.05057	27293.9125
2120.03233	27255.3125
2123.01216	27315.9125
2125.99008	27344.0125
2128.96609	27382.3125
2131.94018	27378.9125
2134.91236	27355.0125
2137.88263	27428.3125
2140.851	27445.0125
2143.81746	27502.4125
2146.78201	27536.2125
2149.74466	27503.2125
2152.7054	27559.6125
2155.66425	27539.0125
2158.6212	27525.1125
2161.57625	27494.9125
2164.52941	27533.9125
2167.48067	27543.1125
2170.43004	27488.4125
2173.37752	27496.3125
2176.32311	27448.6125
2179.26681	27458.5125
2182.20863	27522.7125
2185.14856	27541.7125
2188.08661	27556.4125
2191.02278	27559.3125
2193.95707	27537.6125
2196.88948	27550.9125
2199.82001	27607.2125
2202.74867	27615.4125
2205.67545	27633.3125
2208.60037	27598.0125
2211.52341	27612.1125
2214.44458	27589.2125
2217.36388	27578.5125
2220.28132	27570.6125
2223.1969	27478.5125
2226.11061	27524.8125
2229.02246	27439.7125
2231.93245	27363.7125
2234.84058	27314.5125
2237.74686	27267.6125
2240.65128	27231.3125
2243.55385	27178.0125
2246.45456	27171.1125
2249.35343	27099.5125
2252.25044	27064.8125
2255.14561	27035.1125
2258.03893	27018.8125
2260.93041	26990.3125
2263.82004	26947.8125
2266.70783	26854.7125
2269.59378	26811.0125
2272.4779	26768.2125
2275.36017	26674.8125
2278.24061	26626.1125
2281.11922	26562.0125
2283.996	26570.1125
2286.87094	26548.7125
2289.74405	26534.1125
2292.61534	26482.9125
2295.4848	26481.1125
2298.35243	26512.0125
2301.21824	26559.0125
2304.08223	26580.6125
2306.94439	26614.8125
2309.80474	26656.5125
2312.66327	26648.0125
2315.51999	26714.5125
2318.37489	26732.9125
2321.22797	26714.5125
2324.07925	26690.8125
2326.92871	26676.5125
2329.77637	26693.0125
2332.62222	26665.0125
2335.46626	26683.0125
2338.3085	26731.7125
2341.14893	26786.4125
2343.98756	26799.7125
2346.8244	26804.8125
2349.65943	26786.5125
2352.49267	26775.1125
2355.32411	26820.2125
2358.15376	26737.0125
2360.98161	26680.3125
2363.80768	26667.6125
2366.63195	26623.7125
2369.45444	26559.9125
2372.27514	26493.5125
2375.09405	26449.6125
2377.91118	26386.7125
2380.72652	26328.2125
2383.54009	26234.2125
2386.35187	26238.2125
2389.16188	26198.2125
2391.97011	26203.1125
2394.77657	26210.3125
2397.58125	26183.1125
2400.38416	26079.3125
2403.18529	26081.3125
2405.98466	26008.8125
2408.78226	25931.7125
2411.57809	25860.7125
2414.37216	25804.9125
2417.16446	25819.9125
2419.955	25745.8125
2422.74378	25719.0125
2425.5308	25668.9125
2428.31606	25663.8125
2431.09956	25651.2125
2433.88131	25583.6125
2436.6613	25620.0125
2439.43954	25615.4125
2442.21603	25614.4125
2444.99077	25611.7125
2447.76377	25647.7125
2450.53501	25593.6125
2453.30451	25611.8125
2456.07226	25585.3125
2458.83827	25631.6125
2461.60254	25616.8125
2464.36507	25664.5125
2467.12586	25687.8125
2469.88492	25648.4125
2472.64224	25637.0125
2475.39782	25672.9125
2478.15167	25743.7125
2480.90379	25736.5125
2483.65417	25744.1125
2486.40283	25828.4125
2489.14976	25878.7125
2491.89497	25824.7125
2494.63845	25812.3125
2497.3802	25812.5125
2500.12024	25878.6125
2502.85855	25828.5125
2505.59514	25866.1125
2508.33002	25780.1125
2511.06318	25728.6125
2513.79462	25738.4125
2516.52435	25686.3125
2519.25237	25700.5125
2521.97867	25641.1125
2524.70327	25669.7125
2527.42616	25658.7125
2530.14734	25676.1125
2532.86681	25683.6125
2535.58458	25663.3125
2538.30065	25629.2125
2541.01501	25668.4125
2543.72768	25626.7125
2546.43864	25645.2125
2549.14791	25632.1125
2551.85548	25618.3125
2554.56136	25622.2125
2557.26554	25584.5125
2559.96803	25549.9125
2562.66883	25561.1125
2565.36794	25555.7125
2568.06536	25550.9125
2570.7611	25523.1125
2573.45514	25559.8125
2576.14751	25590.1125
2578.83819	25507.5125
2581.52719	25525.1125
2584.21451	25517.8125
2586.90015	25566.9125
2589.58411	25498.2125
2592.2664	25512.2125
2594.94701	25449.5125
2597.62594	25488.3125
2600.30321	25470.2125
2602.9788	25486.1125
2605.65273	25464.2125
2608.32498	25460.2125
2610.99557	25439.4125
2613.66449	25497.6125
2616.33175	25441.6125
2618.99734	25464.5125
2621.66128	25481.8125
2624.32355	25510.5125
2626.98416	25541.5125
2629.64311	25534.2125
2632.30041	25539.8125
2634.95605	25483.8125
2637.61004	25497.4125
2640.26238	25493.0125
2642.91306	25453.3125
2645.56209	25393.2125
2648.20948	25380.1125
2650.85521	25366.6125
2653.4993	25328.9125
2656.14175	25377.3125
2658.78255	25377.3125
2661.42171	25377.6125
2664.05923	25405.2125
2666.6951	25409.1125
2669.32934	25432.5125
2671.96194	25459.6125
2674.59291	25425.1125
2677.22224	25437.4125
2679.84993	25379.3125
2682.476	25357.0125
2685.10043	25348.9125
2687.72324	25299.5125
2690.34441	25288.7125
2692.96396	25245.7125
2695.58188	25298.1125
2698.19818	25243.8125
2700.81285	25218.2125
2703.4259	25222.6125
2706.03733	25227.2125
2708.64714	25213.6125
2711.25533	25257.6125
2713.86191	25239.0125
2716.46687	25284.1125
2719.07021	25272.9125
2721.67194	25267.0125
2724.27206	25264.1125
2726.87057	25316.8125
2729.46747	25291.6125
2732.06276	25334.1125
2734.65644	25306.7125
2737.24852	25358.9125
2739.83899	25296.6125
2742.42786	25342.4125
2745.01513	25275.3125
2747.60079	25265.6125
2750.18486	25237.6125
2752.76733	25234.7125
2755.3482	25256.5125
2757.92747	25279.8125
2760.50515	25217.6125
2763.08123	25256.4125
2765.65573	25245.7125
2768.22863	25244.4125
2770.79994	25205.1125
2773.36967	25188.0125
2775.9378	25159.4125
2778.50435	25180.8125
2781.06932	25195.9125
2783.6327	25204.1125
2786.1945	25185.9125
2788.75471	25129.2125
2791.31335	25095.2125
2793.87041	25092.6125
2796.42589	24993.8125
2798.97979	24962.2125
2801.53212	24946.0125
2804.08288	24932.2125
2806.63206	24863.6125
2809.17967	24816.8125
2811.72571	24769.9125
2814.27018	24774.1125
2816.81308	24772.2125
2819.35442	24746.5125
2821.89419	24687.9125
2824.43239	24692.7125
2826.96904	24646.0125
2829.50412	24719.2125
2832.03763	24632.5125
2834.56959	24618.2125
2837.1	24580.9125
2839.62884	24571.2125
2842.15613	24483.3125
2844.68186	24524.0125
2847.20604	24509.1125
2849.72867	24494.4125
2852.24974	24482.3125
2854.76927	24513.5125
2857.28724	24468.6125
2859.80367	24450.2125
2862.31855	24445.6125
2864.83189	24467.0125
2867.34368	24440.6125
2869.85393	24454.6125
2872.36264	24396.8125
2874.8698	24420.3125
2877.37543	24446.1125
2879.87952	24490.6125
2882.38207	24462.3125
2884.88308	24476.0125
2887.38256	24502.4125
2889.88051	24523.6125
2892.37692	24527.7125
2894.8718	24550.7125
2897.36515	24533.3125
2899.85698	24595.3125
2902.34727	24610.5125
2904.83604	24640.2125
2907.32328	24678.8125
2909.809	24696.6125
2912.29319	24757.3125
2914.77587	24684.2125
2917.25702	24711.9125
2919.73665	24666.3125
2922.21476	24702.3125
2924.69136	24643.6125
2927.16644	24614.5125
2929.64	24580.7125
2932.11205	24525.8125
2934.58258	24453.0125
2937.05161	24486.2125
2939.51912	24491.3125
2941.98513	24459.7125
2944.44962	24383.0125
2946.91261	24294.6125
2949.37409	24345.5125
2951.83407	24310.0125
2954.29254	24277.1125
2956.74951	24286.5125
2959.20498	24247.9125
2961.65895	24209.9125
2964.11142	24233.7125
2966.56239	24145.0125
2969.01186	24126.7125
2971.45984	23986.2125
2973.90632	23965.4125
2976.35131	23914.1125
2978.7948	23890.2125
2981.23681	23853.9125
2983.67732	23795.7125
2986.11635	23722.7125
2988.55388	23648.8125
2990.98993	23610.6125
2993.4245	23543.8125
2995.85758	23491.1125
2998.28917	23419.3125
3000.71928	23401.3125
3003.14791	23354.3125
3005.57506	23285.2125
3008.00073	23226.1125
3010.42493	23248.2125
3012.84764	23242.4125
3015.26888	23230.1125
3017.68865	23189.5125
3020.10694	23141.0125
3022.52376	23052.3125
3024.9391	23066.3125
3027.35298	23033.8125
3029.76539	23002.1125
3032.17632	22929.8125
3034.5858	22929.4125
3036.9938	22882.4125
3039.40034	22875.6125
3041.80542	22835.2125
3044.20903	22828.6125
3046.61118	22824.6125
3049.01187	22712.2125
3051.4111	22706.1125
3053.80888	22708.2125
3056.20519	22649.8125
3058.60005	22592.1125
3060.99345	22585.0125
3063.3854	22517.9125
3065.7759	22465.4125
3068.16494	22455.5125
3070.55254	22397.2125
3072.93868	22318.1125
3075.32338	22235.3125
3077.70662	22173.6125
3080.08842	22090.3125
3082.46878	22127.9125
3084.84769	22095.6125
3087.22515	22106.2125
3089.60118	22089.3125
3091.97576	22107.5125
3094.3489	22046.2125
3096.72061	22005.7125
3099.09087	22013.3125
3101.4597	21989.8125
3103.82709	21999.0125
3106.19305	21942.3125
3108.55757	21989.1125
3110.92066	21915.2125
3113.28232	21866.1125
3115.64255	21804.6125
3118.00134	21769.0125
3120.35871	21714.3125
3122.71466	21702.4125
3125.06917	21621.5125
3127.42226	21608.2125
3129.77393	21661.3125
3132.12417	21598.9125
3134.47299	21584.4125
3136.82039	21595.9125
3139.16636	21603.4125
3141.51092	21571.5125
3143.85406	21585.7125
3146.19579	21584.5125
3148.53609	21540.9125
3150.87499	21559.9125
3153.21246	21581.4125
3155.54853	21577.0125
3157.88318	21551.2125
3160.21642	21594.6125
3162.54826	21541.8125
3164.87868	21529.0125
3167.2077	21514.6125
3169.5353	21481.0125
3171.86151	21514.7125
3174.18631	21468.3125
3176.5097	21440.8125
3178.83169	21432.6125
3181.15228	21441.9125
3183.47147	21355.2125
3185.78926	21385.7125
3188.10565	21376.2125
3190.42065	21371.9125
3192.73424	21381.7125
3195.04645	21345.8125
3197.35725	21398.7125
3199.66667	21369.4125
3201.97469	21356.2125
3204.28132	21338.0125
3206.58656	21357.8125
3208.8904	21324.8125
3211.19287	21342.3125
3213.49394	21348.6125
3215.79363	21344.9125
3218.09193	21359.7125
3220.38884	21350.3125
3222.68438	21366.0125
3224.97853	21312.8125
3227.2713	21290.0125
3229.56269	21301.2125
3231.8527	21295.7125
3234.14133	21200.6125
3236.42858	21194.4125
3238.71446	21186.5125
3240.99896	21159.1125
3243.28209	21145.9125
3245.56384	21126.3125
3247.84423	21155.2125
3250.12324	21159.8125
3252.40088	21140.7125
3254.67715	21083.9125
3256.95205	21082.9125
3259.22558	21048.0125
3261.49775	20971.8125
3263.76855	20957.4125
3266.03799	20941.7125
3268.30606	20915.5125
3270.57277	20914.5125
3272.83812	20862.8125
3275.10211	20828.8125
3277.36474	20843.8125
3279.62601	20847.3125
3281.88593	20831.1125
3284.14448	20840.6125
3286.40168	20834.3125
3288.65753	20836.2125
3290.91202	20797.6125
3293.16516	20719.7125
3295.41695	20701.9125
3297.66738	20568.6125
3299.91647	20517.8125
3302.16421	20400.0125
3304.4106	20314.5125
3306.65564	20218.9125
3308.89933	20078.9125
3311.14169	19963.9125
3313.38269	19816.2125
3315.62236	19704.5125
3317.86068	19528.1125
3320.09766	19361.9125
3322.3333	19216.3125
3324.5676	19189.4125
3326.80056	18905.8125
3329.03219	18797.5125
3331.26248	5.1125
3333.49143	0.2125
3335.71905	-0.0875
