Data from AgNP_FTO_APTES_CRN_200uM_R6G_10uM_NaF_0.1M_Addition_RamanShift__1__19-18-08-159.txt Node

Date: Wed Dec 15 19:18:08 GMT 2021
User: TCL
Spectrometer: QEP01345
Trigger mode: 4
Integration Time (sec): 7.000000E0
Scans to average: 10
Electric dark correction enabled: true
Nonlinearity correction enabled: false
Boxcar width: 0
XAxis mode: Raman Shifts
Number of Pixels in Spectrum: 1044
>>>>>Begin Spectral Data<<<<<
46.04893	0.4125
50.45542	-2.1875
54.85868	-0.8875
59.25871	-0.4875
63.6555	58.6125
68.04907	67.3125
72.43941	71.1125
76.82654	73.0125
81.21044	74.6125
85.59113	76.4125
89.96862	85.4125
94.34289	77.5125
98.71396	87.1125
103.08183	87.9125
107.4465	90.8125
111.80798	92.7125
116.16626	95.5125
120.52136	102.9125
124.87327	103.5125
129.222	104.2125
133.56755	107.5125
137.90993	117.6125
142.24913	124.2125
146.58517	135.0125
150.91804	158.9125
155.24774	181.6125
159.57429	231.6125
163.89768	288.8125
168.21792	372.9125
172.53501	509.7125
176.84895	698.8125
181.15975	990.2125
185.46741	1381.6125
189.77193	1912.1125
194.07331	2554.4125
198.37157	3277.4125
202.6667	4050.5125
206.9587	4821.4125
211.24758	5595.9125
215.53334	6324.7125
219.81599	7131.7125
224.09553	7999.2125
228.37195	8966.7125
232.64527	10038.4125
236.91549	11161.9125
241.18261	12287.3125
245.44663	13347.0125
249.70755	14345.6125
253.96539	15221.0125
258.22014	15960.9125
262.4718	16543.4125
266.72039	16876.2125
270.96589	17082.3125
275.20832	17032.0125
279.44768	16917.5125
283.68397	16701.9125
287.91719	16515.1125
292.14735	16374.2125
296.37445	16325.1125
300.59849	16321.1125
304.81948	16344.9125
309.03742	16360.2125
313.25231	16303.8125
317.46415	16070.4125
321.67296	15750.0125
325.87872	15459.3125
330.08145	15309.7125
334.28114	15308.1125
338.47781	15407.6125
342.67145	15571.8125
346.86207	15835.5125
351.04966	16108.1125
355.23424	16375.3125
359.4158	16594.6125
363.59435	16728.8125
367.76989	16829.4125
371.94243	16894.1125
376.11196	16909.9125
380.27849	17043.9125
384.44203	17133.2125
388.60257	17294.3125
392.76012	17443.8125
396.91468	17671.6125
401.06626	17951.1125
405.21485	18154.7125
409.36047	18153.4125
413.50311	17949.7125
417.64277	17704.8125
421.77947	17614.9125
425.9132	17602.2125
430.04396	17681.1125
434.17176	17760.1125
438.2966	17875.1125
442.41849	18117.2125
446.53742	18469.5125
450.6534	18819.4125
454.76644	19056.2125
458.87653	19124.2125
462.98368	19096.4125
467.08789	18994.4125
471.18916	18876.5125
475.2875	18804.0125
479.38291	18732.3125
483.4754	18663.0125
487.56496	18514.0125
491.6516	18271.2125
495.73531	18125.0125
499.81612	18031.7125
503.89401	18139.7125
507.96899	18172.9125
512.04106	18183.1125
516.11023	18190.0125
520.1765	18206.2125
524.23987	18210.2125
528.30034	18132.1125
532.35792	18004.3125
536.41261	17837.9125
540.46441	17688.3125
544.51333	17635.4125
548.55936	17771.9125
552.60252	18045.3125
556.64279	18396.3125
560.6802	18588.2125
564.71473	18623.4125
568.7464	18800.0125
572.7752	19064.6125
576.80114	19344.4125
580.82422	19651.4125
584.84444	20094.2125
588.86181	20533.6125
592.87633	20895.6125
596.888	20906.2125
600.89682	20617.8125
604.9028	20672.2125
608.90594	21868.5125
612.90624	23301.1125
616.90371	22272.1125
620.89834	19460.8125
624.89015	18212.9125
628.87913	18046.7125
632.86528	18159.4125
636.84862	18173.0125
640.82913	18023.0125
644.80683	17719.8125
648.78172	17533.6125
652.75379	17521.2125
656.72306	17617.8125
660.68952	17826.6125
664.65319	17769.2125
668.61405	17585.4125
672.57211	17543.3125
676.52738	17623.0125
680.47986	17656.9125
684.42955	17576.6125
688.37646	17516.6125
692.32058	17569.7125
696.26192	17720.0125
700.20048	17866.7125
704.13626	18034.8125
708.06928	18049.0125
711.99952	18055.3125
715.927	18043.0125
719.85171	18062.6125
723.77365	17986.8125
727.69284	17816.2125
731.60928	17659.6125
735.52295	17613.9125
739.43388	17619.5125
743.34206	17648.4125
747.24749	17725.7125
751.15017	17803.8125
755.05012	18032.1125
758.94733	18376.2125
762.8418	19046.0125
766.73354	20114.5125
770.62254	21198.1125
774.50882	21559.9125
778.39237	20828.1125
782.27321	19686.3125
786.15132	18692.3125
790.02671	18060.9125
793.89938	17788.9125
797.76935	17659.5125
801.6366	17598.6125
805.50115	17579.7125
809.36299	17520.5125
813.22213	17505.7125
817.07857	17476.3125
820.93231	17461.3125
824.78336	17434.9125
828.63172	17428.6125
832.47738	17498.8125
836.32036	17536.2125
840.16066	17594.1125
843.99827	17598.3125
847.8332	17518.4125
851.66546	17431.2125
855.49504	17437.6125
859.32195	17402.4125
863.1462	17382.8125
866.96777	17360.7125
870.78668	17365.1125
874.60293	17351.2125
878.41652	17413.0125
882.22745	17454.7125
886.03573	17478.5125
889.84136	17479.3125
893.64433	17450.4125
897.44466	17419.3125
901.24235	17374.9125
905.0374	17325.2125
908.8298	17328.9125
912.61957	17335.7125
916.40671	17473.5125
920.19121	17573.4125
923.97308	17731.9125
927.75233	17814.6125
931.52895	17809.2125
935.30295	17640.1125
939.07433	17397.2125
942.84309	17208.1125
946.60924	17072.8125
950.37278	17005.7125
954.13371	16951.3125
957.89203	16895.0125
961.64774	16899.1125
965.40086	16903.5125
969.15137	16858.8125
972.89929	16802.8125
976.64461	16826.1125
980.38733	16786.1125
984.12747	16847.3125
987.86502	16971.6125
991.59999	17082.0125
995.33237	17232.9125
999.06217	17495.6125
1002.78939	17744.5125
1006.51404	17935.3125
1010.23611	18067.7125
1013.95561	18189.1125
1017.67255	18199.6125
1021.38692	18163.1125
1025.09872	17986.7125
1028.80796	17978.2125
1032.51465	18210.5125
1036.21877	18475.2125
1039.92035	18582.2125
1043.61937	18562.4125
1047.31584	18448.3125
1051.00976	18332.7125
1054.70114	18349.8125
1058.38998	18436.4125
1062.07627	18657.7125
1065.76003	19043.6125
1069.44126	19484.4125
1073.11995	19917.7125
1076.79611	20125.5125
1080.46974	19941.6125
1084.14085	19623.1125
1087.80943	19422.6125
1091.47549	19312.3125
1095.13903	19208.2125
1098.80005	18973.5125
1102.45857	18655.9125
1106.11456	18348.3125
1109.76805	18239.5125
1113.41903	18246.7125
1117.06751	18316.5125
1120.71348	18505.1125
1124.35696	18674.2125
1127.99793	18935.3125
1131.63641	19072.0125
1135.2724	18911.6125
1138.90589	18742.3125
1142.5369	18664.6125
1146.16542	18597.1125
1149.79145	18653.2125
1153.415	18725.0125
1157.03607	18826.5125
1160.65467	19136.4125
1164.27079	19609.6125
1167.88443	20349.5125
1171.49561	21249.4125
1175.10432	22541.2125
1178.71056	24057.1125
1182.31434	25424.4125
1185.91565	25971.9125
1189.51451	25709.3125
1193.11091	25003.4125
1196.70485	24002.8125
1200.29634	23159.7125
1203.88538	22532.8125
1207.47197	22073.9125
1211.05612	21715.4125
1214.63782	21400.6125
1218.21708	21083.2125
1221.79391	20846.6125
1225.36829	20677.2125
1228.94024	20566.1125
1232.50976	20398.1125
1236.07685	20168.9125
1239.6415	20084.0125
1243.20374	20097.1125
1246.76355	20228.0125
1250.32093	20415.3125
1253.8759	20722.2125
1257.42845	21130.9125
1260.97859	21516.8125
1264.52631	21935.8125
1268.07163	22379.8125
1271.61453	22821.3125
1275.15503	23303.2125
1278.69312	23791.8125
1282.22882	24249.9125
1285.76211	24780.4125
1289.29301	25425.8125
1292.82151	26253.4125
1296.34761	27166.5125
1299.87133	28264.1125
1303.39266	29492.0125
1306.9116	30811.2125
1310.42815	32074.3125
1313.94233	32733.7125
1317.45412	32562.8125
1320.96354	31891.3125
1324.47058	31094.9125
1327.97525	30371.0125
1331.47754	29822.2125
1334.97747	29431.4125
1338.47502	29210.1125
1341.97022	29059.2125
1345.46305	28932.5125
1348.95352	29060.8125
1352.44163	29603.2125
1355.92738	30556.5125
1359.41078	32013.7125
1362.89183	33318.4125
1366.37053	32917.7125
1369.84688	30697.5125
1373.32088	27911.2125
1376.79254	25911.1125
1380.26186	24912.0125
1383.72883	24540.1125
1387.19347	24287.6125
1390.65578	23891.6125
1394.11575	23720.8125
1397.57339	23756.9125
1401.0287	23855.4125
1404.48168	23947.3125
1407.93234	23818.7125
1411.38068	23523.7125
1414.82669	23093.1125
1418.27039	22519.7125
1421.71177	21980.5125
1425.15083	21468.2125
1428.58758	21184.0125
1432.02203	21225.2125
1435.45416	21528.9125
1438.88399	21781.6125
1442.31151	22028.6125
1445.73673	22156.2125
1449.15965	22342.1125
1452.58027	22411.7125
1455.9986	22475.7125
1459.41463	22626.7125
1462.82837	22886.0125
1466.23982	23258.1125
1469.64898	23635.5125
1473.05586	23942.9125
1476.46045	24069.3125
1479.86276	24173.7125
1483.26279	24240.9125
1486.66054	24400.8125
1490.05602	24684.7125
1493.44922	25116.4125
1496.84016	25657.9125
1500.22882	26425.3125
1503.61521	27417.0125
1506.99934	28475.6125
1510.38121	29244.3125
1513.76081	29347.8125
1517.13816	28511.0125
1520.51324	27248.6125
1523.88607	26122.5125
1527.25665	25355.6125
1530.62498	24985.1125
1533.99105	24754.8125
1537.35488	24498.3125
1540.71647	24170.4125
1544.07581	23756.5125
1547.4329	23375.2125
1550.78776	22984.4125
1554.14038	22802.9125
1557.49077	22668.9125
1560.83892	22731.9125
1564.18484	22904.9125
1567.52853	23242.4125
1570.86999	23778.9125
1574.20922	24386.2125
1577.54624	25053.7125
1580.88103	25188.4125
1584.2136	24993.8125
1587.54395	24709.1125
1590.87208	24770.9125
1594.19801	25348.3125
1597.52172	26129.8125
1600.84321	26511.3125
1604.16251	25833.9125
1607.47959	24550.9125
1610.79447	23050.8125
1614.10715	21633.7125
1617.41763	20501.9125
1620.7259	19792.9125
1624.03199	19350.6125
1627.33587	19302.7125
1630.63757	19604.6125
1633.93707	20289.5125
1637.23439	21472.3125
1640.52951	23209.9125
1643.82246	25571.9125
1647.11321	27653.6125
1650.40179	28541.9125
1653.68819	27531.4125
1656.97241	25044.6125
1660.25446	22444.5125
1663.53433	20352.6125
1666.81203	18932.3125
1670.08756	18075.1125
1673.36092	17518.8125
1676.63211	17138.7125
1679.90115	16923.2125
1683.16801	16733.3125
1686.43272	16575.1125
1689.69527	16465.2125
1692.95567	16400.7125
1696.2139	16391.8125
1699.46999	16355.8125
1702.72392	16355.2125
1705.97571	16313.9125
1709.22535	16262.8125
1712.47284	16243.3125
1715.71819	16243.1125
1718.96139	16199.2125
1722.20246	16167.0125
1725.44139	16141.1125
1728.67818	16075.6125
1731.91284	15983.5125
1735.14537	15953.9125
1738.37576	15918.1125
1741.60403	15870.8125
1744.83017	15867.0125
1748.05418	15872.4125
1751.27607	15820.2125
1754.49584	15799.1125
1757.71349	15796.8125
1760.92903	15809.8125
1764.14244	15786.5125
1767.35375	15797.5125
1770.56294	15755.1125
1773.77002	15776.3125
1776.97499	15729.7125
1780.17785	15712.1125
1783.37861	15673.8125
1786.57727	15643.4125
1789.77382	15605.2125
1792.96828	15586.5125
1796.16064	15566.3125
1799.3509	15551.2125
1802.53907	15539.0125
1805.72514	15473.3125
1808.90913	15435.2125
1812.09102	15436.7125
1815.27083	15414.9125
1818.44856	15397.0125
1821.6242	15380.4125
1824.79776	15385.5125
1827.96924	15371.3125
1831.13864	15366.2125
1834.30597	15339.9125
1837.47122	15328.2125
1840.6344	15321.1125
1843.7955	15322.1125
1846.95454	15326.0125
1850.11151	15306.3125
1853.26642	15325.1125
1856.41926	15297.5125
1859.57004	15325.6125
1862.71876	15259.8125
1865.86542	15266.0125
1869.01003	15276.8125
1872.15258	15249.3125
1875.29308	15257.6125
1878.43152	15215.8125
1881.56792	15227.8125
1884.70227	15213.0125
1887.83457	15176.5125
1890.96482	15195.9125
1894.09304	15141.7125
1897.21921	15127.8125
1900.34335	15149.4125
1903.46544	15103.4125
1906.58551	15109.6125
1909.70353	15048.9125
1912.81953	15072.8125
1915.93349	15069.8125
1919.04543	15025.2125
1922.15534	15021.1125
1925.26322	15003.1125
1928.36908	14965.2125
1931.47292	14990.8125
1934.57473	14952.4125
1937.67453	14904.2125
1940.77232	14866.5125
1943.86808	14829.8125
1946.96184	14780.8125
1950.05358	14762.1125
1953.14331	14738.3125
1956.23103	14668.2125
1959.31675	14647.6125
1962.40046	14623.6125
1965.48217	14584.5125
1968.56188	14573.9125
1971.63959	14497.3125
1974.7153	14486.2125
1977.78901	14425.4125
1980.86073	14407.4125
1983.93046	14354.7125
1986.99819	14326.0125
1990.06394	14307.8125
1993.1277	14241.1125
1996.18947	14186.1125
1999.24925	14180.5125
2002.30706	14130.4125
2005.36288	14097.0125
2008.41672	14049.3125
2011.46859	14022.8125
2014.51848	14006.5125
2017.56639	13966.5125
2020.61233	13942.1125
2023.6563	13958.7125
2026.6983	13893.6125
2029.73833	13865.8125
2032.7764	13865.0125
2035.8125	13825.1125
2038.84664	13797.4125
2041.87881	13778.1125
2044.90903	13761.2125
2047.93729	13741.2125
2050.96359	13737.4125
2053.98794	13679.6125
2057.01034	13703.8125
2060.03078	13685.8125
2063.04927	13673.0125
2066.06582	13683.6125
2069.08042	13661.7125
2072.09307	13646.8125
2075.10378	13634.9125
2078.11255	13654.3125
2081.11938	13669.9125
2084.12426	13635.0125
2087.12722	13632.4125
2090.12824	13657.1125
2093.12732	13657.6125
2096.12447	13678.9125
2099.11969	13643.7125
2102.11299	13706.5125
2105.10435	13700.8125
2108.09379	13689.2125
2111.08131	13696.9125
2114.0669	13738.6125
2117.05057	13724.2125
2120.03233	13714.4125
2123.01216	13768.0125
2125.99008	13762.3125
2128.96609	13786.4125
2131.94018	13799.5125
2134.91236	13813.1125
2137.88263	13800.4125
2140.851	13812.0125
2143.81746	13846.4125
2146.78201	13846.0125
2149.74466	13845.5125
2152.7054	13837.8125
2155.66425	13879.7125
2158.6212	13922.9125
2161.57625	13877.9125
2164.52941	13852.3125
2167.48067	13874.5125
2170.43004	13867.4125
2173.37752	13862.5125
2176.32311	13880.4125
2179.26681	13873.8125
2182.20863	13888.2125
2185.14856	13852.6125
2188.08661	13856.2125
2191.02278	13864.7125
2193.95707	13864.3125
2196.88948	13823.9125
2199.82001	13849.5125
2202.74867	13832.7125
2205.67545	13832.2125
2208.60037	13833.3125
2211.52341	13811.0125
2214.44458	13787.9125
2217.36388	13757.2125
2220.28132	13764.4125
2223.1969	13729.9125
2226.11061	13712.1125
2229.02246	13677.3125
2231.93245	13665.0125
2234.84058	13651.7125
2237.74686	13658.6125
2240.65128	13616.6125
2243.55385	13620.9125
2246.45456	13616.5125
2249.35343	13565.7125
2252.25044	13551.0125
2255.14561	13564.2125
2258.03893	13557.4125
2260.93041	13525.7125
2263.82004	13484.1125
2266.70783	13457.5125
2269.59378	13436.8125
2272.4779	13427.0125
2275.36017	13416.2125
2278.24061	13370.1125
2281.11922	13325.4125
2283.996	13331.4125
2286.87094	13316.4125
2289.74405	13303.2125
2292.61534	13241.6125
2295.4848	13263.8125
2298.35243	13278.8125
2301.21824	13249.7125
2304.08223	13262.4125
2306.94439	13241.2125
2309.80474	13286.2125
2312.66327	13279.2125
2315.51999	13281.2125
2318.37489	13251.4125
2321.22797	13231.8125
2324.07925	13250.2125
2326.92871	13223.4125
2329.77637	13240.8125
2332.62222	13190.6125
2335.46626	13147.0125
2338.3085	13171.7125
2341.14893	13119.9125
2343.98756	13130.0125
2346.8244	13119.9125
2349.65943	13130.1125
2352.49267	13133.1125
2355.32411	13099.2125
2358.15376	13091.8125
2360.98161	13094.2125
2363.80768	13118.8125
2366.63195	13087.2125
2369.45444	13085.0125
2372.27514	13070.6125
2375.09405	13081.6125
2377.91118	13031.9125
2380.72652	12987.0125
2383.54009	12971.7125
2386.35187	12969.8125
2389.16188	12913.1125
2391.97011	12902.2125
2394.77657	12875.3125
2397.58125	12886.2125
2400.38416	12879.8125
2403.18529	12826.4125
2405.98466	12838.2125
2408.78226	12835.0125
2411.57809	12814.2125
2414.37216	12774.9125
2417.16446	12773.5125
2419.955	12737.3125
2422.74378	12769.7125
2425.5308	12740.5125
2428.31606	12696.8125
2431.09956	12703.5125
2433.88131	12716.9125
2436.6613	12720.1125
2439.43954	12698.8125
2442.21603	12703.1125
2444.99077	12674.8125
2447.76377	12685.9125
2450.53501	12692.4125
2453.30451	12664.7125
2456.07226	12677.6125
2458.83827	12660.6125
2461.60254	12652.6125
2464.36507	12622.4125
2467.12586	12631.7125
2469.88492	12638.7125
2472.64224	12630.0125
2475.39782	12618.0125
2478.15167	12625.5125
2480.90379	12623.5125
2483.65417	12645.0125
2486.40283	12635.3125
2489.14976	12630.0125
2491.89497	12615.6125
2494.63845	12637.4125
2497.3802	12606.4125
2500.12024	12582.0125
2502.85855	12573.6125
2505.59514	12582.6125
2508.33002	12570.8125
2511.06318	12546.4125
2513.79462	12525.0125
2516.52435	12550.1125
2519.25237	12534.6125
2521.97867	12492.7125
2524.70327	12510.2125
2527.42616	12475.5125
2530.14734	12461.7125
2532.86681	12440.3125
2535.58458	12456.6125
2538.30065	12441.9125
2541.01501	12422.4125
2543.72768	12432.5125
2546.43864	12430.8125
2549.14791	12389.2125
2551.85548	12350.2125
2554.56136	12352.7125
2557.26554	12310.7125
2559.96803	12308.2125
2562.66883	12289.9125
2565.36794	12305.1125
2568.06536	12297.1125
2570.7611	12280.8125
2573.45514	12295.3125
2576.14751	12271.4125
2578.83819	12272.1125
2581.52719	12261.5125
2584.21451	12222.1125
2586.90015	12262.7125
2589.58411	12180.6125
2592.2664	12172.2125
2594.94701	12161.0125
2597.62594	12144.5125
2600.30321	12135.1125
2602.9788	12104.8125
2605.65273	12089.2125
2608.32498	12068.1125
2610.99557	12069.3125
2613.66449	12087.3125
2616.33175	12035.1125
2618.99734	12053.8125
2621.66128	12031.7125
2624.32355	12013.0125
2626.98416	11996.3125
2629.64311	11994.7125
2632.30041	11997.9125
2634.95605	11991.7125
2637.61004	11974.4125
2640.26238	11956.7125
2642.91306	11947.7125
2645.56209	11925.4125
2648.20948	11918.0125
2650.85521	11915.1125
2653.4993	11923.4125
2656.14175	11923.9125
2658.78255	11928.2125
2661.42171	11913.4125
2664.05923	11940.7125
2666.6951	11935.8125
2669.32934	11946.6125
2671.96194	11922.5125
2674.59291	11942.8125
2677.22224	11925.6125
2679.84993	11957.6125
2682.476	11926.8125
2685.10043	11953.4125
2687.72324	11904.6125
2690.34441	11952.0125
2692.96396	11951.3125
2695.58188	11975.3125
2698.19818	11932.6125
2700.81285	11966.0125
2703.4259	11960.6125
2706.03733	12005.4125
2708.64714	11990.5125
2711.25533	11992.9125
2713.86191	11977.7125
2716.46687	11978.7125
2719.07021	11982.0125
2721.67194	11986.2125
2724.27206	11958.1125
2726.87057	11983.8125
2729.46747	12005.1125
2732.06276	11988.9125
2734.65644	11946.6125
2737.24852	11958.0125
2739.83899	11938.5125
2742.42786	11956.4125
2745.01513	11925.1125
2747.60079	11936.1125
2750.18486	11909.6125
2752.76733	11904.3125
2755.3482	11912.4125
2757.92747	11919.2125
2760.50515	11900.1125
2763.08123	11892.6125
2765.65573	11880.7125
2768.22863	11864.7125
2770.79994	11865.2125
2773.36967	11841.2125
2775.9378	11843.9125
2778.50435	11825.1125
2781.06932	11818.2125
2783.6327	11828.3125
2786.1945	11773.9125
2788.75471	11789.9125
2791.31335	11756.7125
2793.87041	11749.6125
2796.42589	11714.3125
2798.97979	11735.6125
2801.53212	11699.0125
2804.08288	11695.8125
2806.63206	11662.6125
2809.17967	11633.9125
2811.72571	11616.0125
2814.27018	11622.3125
2816.81308	11603.9125
2819.35442	11569.8125
2821.89419	11567.0125
2824.43239	11566.3125
2826.96904	11544.9125
2829.50412	11559.1125
2832.03763	11540.3125
2834.56959	11510.3125
2837.1	11513.1125
2839.62884	11532.8125
2842.15613	11526.9125
2844.68186	11563.7125
2847.20604	11557.9125
2849.72867	11580.6125
2852.24974	11568.6125
2854.76927	11570.1125
2857.28724	11545.5125
2859.80367	11547.5125
2862.31855	11525.2125
2864.83189	11512.2125
2867.34368	11473.9125
2869.85393	11488.1125
2872.36264	11485.1125
2874.8698	11487.4125
2877.37543	11495.5125
2879.87952	11483.7125
2882.38207	11523.3125
2884.88308	11490.9125
2887.38256	11520.4125
2889.88051	11536.6125
2892.37692	11486.5125
2894.8718	11491.8125
2897.36515	11512.4125
2899.85698	11487.2125
2902.34727	11525.4125
2904.83604	11521.8125
2907.32328	11578.0125
2909.809	11531.1125
2912.29319	11579.9125
2914.77587	11555.7125
2917.25702	11539.0125
2919.73665	11531.8125
2922.21476	11550.2125
2924.69136	11526.0125
2927.16644	11533.1125
2929.64	11507.9125
2932.11205	11514.3125
2934.58258	11494.3125
2937.05161	11511.3125
2939.51912	11522.8125
2941.98513	11491.3125
2944.44962	11498.6125
2946.91261	11453.2125
2949.37409	11486.3125
2951.83407	11444.1125
2954.29254	11459.3125
2956.74951	11422.2125
2959.20498	11411.4125
2961.65895	11392.5125
2964.11142	11415.9125
2966.56239	11402.2125
2969.01186	11383.2125
2971.45984	11352.1125
2973.90632	11349.7125
2976.35131	11312.6125
2978.7948	11295.1125
2981.23681	11277.7125
2983.67732	11273.4125
2986.11635	11250.3125
2988.55388	11249.7125
2990.98993	11215.7125
2993.4245	11201.5125
2995.85758	11165.3125
2998.28917	11150.0125
3000.71928	11159.0125
3003.14791	11132.0125
3005.57506	11119.1125
3008.00073	11120.5125
3010.42493	11099.0125
3012.84764	11072.8125
3015.26888	11077.4125
3017.68865	11077.9125
3020.10694	11062.6125
3022.52376	11041.6125
3024.9391	11027.7125
3027.35298	11019.7125
3029.76539	11006.4125
3032.17632	11005.6125
3034.5858	10993.5125
3036.9938	10952.6125
3039.40034	10969.2125
3041.80542	10945.6125
3044.20903	10948.3125
3046.61118	10946.0125
3049.01187	10903.2125
3051.4111	10918.0125
3053.80888	10896.2125
3056.20519	10896.2125
3058.60005	10851.4125
3060.99345	10861.3125
3063.3854	10835.6125
3065.7759	10831.3125
3068.16494	10804.0125
3070.55254	10767.4125
3072.93868	10776.4125
3075.32338	10739.7125
3077.70662	10737.6125
3080.08842	10705.0125
3082.46878	10716.8125
3084.84769	10706.7125
3087.22515	10721.1125
3089.60118	10731.2125
3091.97576	10765.2125
3094.3489	10720.1125
3096.72061	10740.0125
3099.09087	10718.6125
3101.4597	10733.8125
3103.82709	10711.3125
3106.19305	10711.7125
3108.55757	10705.9125
3110.92066	10673.4125
3113.28232	10666.3125
3115.64255	10613.9125
3118.00134	10626.9125
3120.35871	10635.2125
3122.71466	10610.3125
3125.06917	10605.1125
3127.42226	10587.3125
3129.77393	10605.1125
3132.12417	10594.8125
3134.47299	10617.5125
3136.82039	10618.8125
3139.16636	10632.6125
3141.51092	10606.7125
3143.85406	10627.9125
3146.19579	10633.6125
3148.53609	10613.6125
3150.87499	10643.9125
3153.21246	10640.9125
3155.54853	10643.0125
3157.88318	10631.0125
3160.21642	10651.2125
3162.54826	10654.5125
3164.87868	10644.8125
3167.2077	10659.5125
3169.5353	10659.0125
3171.86151	10671.2125
3174.18631	10633.0125
3176.5097	10674.6125
3178.83169	10624.6125
3181.15228	10637.9125
3183.47147	10628.4125
3185.78926	10642.3125
3188.10565	10611.0125
3190.42065	10625.9125
3192.73424	10625.9125
3195.04645	10636.4125
3197.35725	10609.7125
3199.66667	10651.3125
3201.97469	10632.5125
3204.28132	10619.9125
3206.58656	10642.6125
3208.8904	10643.1125
3211.19287	10664.4125
3213.49394	10640.6125
3215.79363	10636.0125
3218.09193	10657.7125
3220.38884	10649.3125
3222.68438	10694.5125
3224.97853	10653.2125
3227.2713	10649.7125
3229.56269	10628.6125
3231.8527	10615.3125
3234.14133	10650.2125
3236.42858	10619.4125
3238.71446	10612.8125
3240.99896	10562.2125
3243.28209	10584.1125
3245.56384	10567.8125
3247.84423	10592.1125
3250.12324	10585.7125
3252.40088	10586.7125
3254.67715	10551.9125
3256.95205	10564.4125
3259.22558	10546.4125
3261.49775	10531.9125
3263.76855	10536.2125
3266.03799	10518.8125
3268.30606	10500.4125
3270.57277	10482.3125
3272.83812	10467.7125
3275.10211	10453.1125
3277.36474	10416.9125
3279.62601	10441.0125
3281.88593	10406.2125
3284.14448	10437.8125
3286.40168	10452.5125
3288.65753	10447.8125
3290.91202	10407.8125
3293.16516	10369.0125
3295.41695	10347.3125
3297.66738	10302.0125
3299.91647	10271.1125
3302.16421	10205.1125
3304.4106	10170.2125
3306.65564	10110.7125
3308.89933	10069.1125
3311.14169	10019.2125
3313.38269	9960.7125
3315.62236	9880.1125
3317.86068	9807.1125
3320.09766	9720.1125
3322.3333	9641.8125
3324.5676	9645.1125
3326.80056	9481.7125
3329.03219	9457.1125
3331.26248	3.6125
3333.49143	-0.0875
3335.71905	0.5125
