Data from AgNP_FTO_APTES_CRN_0uM_R6G_10uM_NaF_0.1M_Addition_RamanShift__2__11-32-02-895.txt Node

Date: Wed Dec 15 11:32:02 GMT 2021
User: TCL
Spectrometer: QEP01345
Trigger mode: 4
Integration Time (sec): 7.000000E0
Scans to average: 10
Electric dark correction enabled: true
Nonlinearity correction enabled: false
Boxcar width: 0
XAxis mode: Raman Shifts
Number of Pixels in Spectrum: 1044
>>>>>Begin Spectral Data<<<<<
46.04893	1.875
50.45542	-1.525
54.85868	0.175
59.25871	0.275
63.6555	74.275
68.04907	86.775
72.43941	92.075
76.82654	103.575
81.21044	107.875
85.59113	113.275
89.96862	121.275
94.34289	120.475
98.71396	128.275
103.08183	137.475
107.4465	139.575
111.80798	134.975
116.16626	132.075
120.52136	137.475
124.87327	129.975
129.222	131.075
133.56755	129.675
137.90993	128.475
142.24913	132.375
146.58517	131.775
150.91804	139.675
155.24774	144.575
159.57429	156.375
163.89768	174.075
168.21792	197.475
172.53501	239.675
176.84895	292.275
181.15975	376.175
185.46741	502.475
189.77193	677.875
194.07331	905.875
198.37157	1172.875
202.6667	1478.675
206.9587	1798.175
211.24758	2108.175
215.53334	2425.375
219.81599	2737.075
224.09553	3092.475
228.37195	3467.275
232.64527	3865.975
236.91549	4277.175
241.18261	4673.375
245.44663	5034.475
249.70755	5343.575
253.96539	5582.475
258.22014	5718.275
262.4718	5772.175
266.72039	5727.075
270.96589	5617.475
275.20832	5454.375
279.44768	5247.475
283.68397	5012.875
287.91719	4799.775
292.14735	4615.075
296.37445	4444.575
300.59849	4324.375
304.81948	4219.975
309.03742	4142.775
313.25231	4074.275
317.46415	3986.575
321.67296	3939.075
325.87872	3892.575
330.08145	3849.675
334.28114	3804.175
338.47781	3774.375
342.67145	3728.675
346.86207	3681.875
351.04966	3645.075
355.23424	3611.075
359.4158	3567.575
363.59435	3521.775
367.76989	3483.775
371.94243	3455.975
376.11196	3416.275
380.27849	3415.475
384.44203	3397.875
388.60257	3375.075
392.76012	3365.175
396.91468	3382.975
401.06626	3374.575
405.21485	3397.775
409.36047	3401.275
413.50311	3386.175
417.64277	3393.175
421.77947	3391.175
425.9132	3405.775
430.04396	3433.975
434.17176	3465.375
438.2966	3481.075
442.41849	3536.975
446.53742	3562.675
450.6534	3580.275
454.76644	3594.675
458.87653	3614.975
462.98368	3615.475
467.08789	3611.875
471.18916	3631.975
475.2875	3618.975
479.38291	3621.675
483.4754	3623.675
487.56496	3647.375
491.6516	3657.475
495.73531	3665.675
499.81612	3678.175
503.89401	3695.575
507.96899	3744.575
512.04106	3766.075
516.11023	3786.575
520.1765	3813.975
524.23987	3801.075
528.30034	3783.475
532.35792	3751.675
536.41261	3748.375
540.46441	3743.275
544.51333	3758.475
548.55936	3792.875
552.60252	3833.675
556.64279	3896.975
560.6802	3895.975
564.71473	3911.375
568.7464	3886.475
572.7752	3848.775
576.80114	3797.675
580.82422	3753.075
584.84444	3744.675
588.86181	3775.975
592.87633	3840.175
596.888	3978.575
600.89682	4216.175
604.9028	4512.275
608.90594	4904.775
612.90624	5215.475
616.90371	5118.675
620.89834	4617.475
624.89015	4126.275
628.87913	3841.875
632.86528	3672.775
636.84862	3582.275
640.82913	3564.675
644.80683	3514.475
648.78172	3481.975
652.75379	3480.675
656.72306	3507.075
660.68952	3531.375
664.65319	3538.775
668.61405	3520.675
672.57211	3519.275
676.52738	3520.875
680.47986	3528.975
684.42955	3553.275
688.37646	3547.975
692.32058	3558.475
696.26192	3544.475
700.20048	3570.175
704.13626	3581.775
708.06928	3602.175
711.99952	3610.175
715.927	3636.575
719.85171	3662.475
723.77365	3690.075
727.69284	3748.475
731.60928	3783.775
735.52295	3823.375
739.43388	3825.875
743.34206	3803.075
747.24749	3783.275
751.15017	3794.375
755.05012	3805.575
758.94733	3829.975
762.8418	3875.075
766.73354	3953.675
770.62254	4040.375
774.50882	4109.875
778.39237	4057.075
782.27321	3943.375
786.15132	3837.175
790.02671	3791.475
793.89938	3766.075
797.76935	3767.275
801.6366	3758.975
805.50115	3774.775
809.36299	3757.975
813.22213	3747.075
817.07857	3709.275
820.93231	3688.275
824.78336	3684.975
828.63172	3680.575
832.47738	3665.575
836.32036	3677.375
840.16066	3705.775
843.99827	3712.175
847.8332	3711.775
851.66546	3704.875
855.49504	3693.375
859.32195	3690.875
863.1462	3683.175
866.96777	3678.575
870.78668	3702.775
874.60293	3727.175
878.41652	3759.475
882.22745	3815.975
886.03573	3898.575
889.84136	3989.775
893.64433	4128.575
897.44466	4270.375
901.24235	4403.675
905.0374	4560.175
908.8298	4773.475
912.61957	5028.475
916.40671	5327.375
920.19121	5624.475
923.97308	5852.775
927.75233	5945.275
931.52895	5892.575
935.30295	5715.475
939.07433	5452.675
942.84309	5170.875
946.60924	4941.775
950.37278	4802.175
954.13371	4625.175
957.89203	4436.275
961.64774	4246.975
965.40086	4105.375
969.15137	3974.075
972.89929	3881.275
976.64461	3808.575
980.38733	3743.775
984.12747	3705.475
987.86502	3706.775
991.59999	3716.675
995.33237	3757.375
999.06217	3807.075
1002.78939	3877.275
1006.51404	3908.375
1010.23611	3942.275
1013.95561	3937.375
1017.67255	3884.575
1021.38692	3871.775
1025.09872	3823.275
1028.80796	3807.375
1032.51465	3834.475
1036.21877	3881.375
1039.92035	3932.675
1043.61937	3976.975
1047.31584	4028.575
1051.00976	4083.775
1054.70114	4159.775
1058.38998	4209.075
1062.07627	4256.175
1065.76003	4264.875
1069.44126	4263.675
1073.11995	4248.475
1076.79611	4219.475
1080.46974	4209.475
1084.14085	4168.075
1087.80943	4087.075
1091.47549	4009.675
1095.13903	3930.675
1098.80005	3863.975
1102.45857	3771.375
1106.11456	3723.875
1109.76805	3698.075
1113.41903	3673.275
1117.06751	3650.075
1120.71348	3661.575
1124.35696	3659.975
1127.99793	3668.575
1131.63641	3648.675
1135.2724	3596.575
1138.90589	3531.375
1142.5369	3475.675
1146.16542	3425.975
1149.79145	3361.875
1153.415	3309.875
1157.03607	3281.375
1160.65467	3257.175
1164.27079	3268.075
1167.88443	3287.575
1171.49561	3373.975
1175.10432	3506.775
1178.71056	3709.575
1182.31434	3943.075
1185.91565	4130.775
1189.51451	4257.675
1193.11091	4278.575
1196.70485	4197.075
1200.29634	4052.975
1203.88538	3862.875
1207.47197	3668.375
1211.05612	3544.275
1214.63782	3448.375
1218.21708	3397.675
1221.79391	3409.275
1225.36829	3447.375
1228.94024	3504.975
1232.50976	3505.675
1236.07685	3496.075
1239.6415	3479.375
1243.20374	3430.775
1246.76355	3420.975
1250.32093	3400.975
1253.8759	3420.475
1257.42845	3463.775
1260.97859	3495.375
1264.52631	3569.075
1268.07163	3630.175
1271.61453	3691.175
1275.15503	3762.175
1278.69312	3824.675
1282.22882	3883.275
1285.76211	3983.675
1289.29301	4091.275
1292.82151	4205.475
1296.34761	4289.475
1299.87133	4326.175
1303.39266	4336.475
1306.9116	4336.475
1310.42815	4359.475
1313.94233	4324.675
1317.45412	4215.575
1320.96354	4098.575
1324.47058	3997.675
1327.97525	3928.275
1331.47754	3912.275
1334.97747	3927.475
1338.47502	3970.075
1341.97022	4052.875
1345.46305	4160.075
1348.95352	4304.875
1352.44163	4489.375
1355.92738	4660.075
1359.41078	4892.575
1362.89183	5121.475
1366.37053	5166.175
1369.84688	4991.775
1373.32088	4777.675
1376.79254	4580.975
1380.26186	4466.675
1383.72883	4399.975
1387.19347	4353.375
1390.65578	4333.175
1394.11575	4290.975
1397.57339	4249.975
1401.0287	4189.175
1404.48168	4143.775
1407.93234	4112.575
1411.38068	4047.375
1414.82669	4011.175
1418.27039	3968.675
1421.71177	3899.575
1425.15083	3831.175
1428.58758	3783.475
1432.02203	3741.175
1435.45416	3705.675
1438.88399	3703.275
1442.31151	3732.075
1445.73673	3760.675
1449.15965	3755.475
1452.58027	3734.375
1455.9986	3707.075
1459.41463	3665.075
1462.82837	3677.875
1466.23982	3662.975
1469.64898	3699.975
1473.05586	3729.575
1476.46045	3726.875
1479.86276	3760.375
1483.26279	3788.375
1486.66054	3802.975
1490.05602	3793.575
1493.44922	3798.875
1496.84016	3785.075
1500.22882	3824.375
1503.61521	3906.875
1506.99934	3971.375
1510.38121	4053.075
1513.76081	4057.275
1517.13816	3957.375
1520.51324	3820.075
1523.88607	3659.475
1527.25665	3536.975
1530.62498	3481.075
1533.99105	3453.075
1537.35488	3422.375
1540.71647	3390.675
1544.07581	3379.875
1547.4329	3392.675
1550.78776	3359.275
1554.14038	3353.275
1557.49077	3346.975
1560.83892	3332.975
1564.18484	3320.475
1567.52853	3316.175
1570.86999	3318.475
1574.20922	3319.775
1577.54624	3330.675
1580.88103	3285.175
1584.2136	3244.075
1587.54395	3164.975
1590.87208	3151.175
1594.19801	3116.275
1597.52172	3111.975
1600.84321	3124.275
1604.16251	3090.075
1607.47959	3068.175
1610.79447	3067.175
1614.10715	3053.375
1617.41763	3032.475
1620.7259	3023.175
1624.03199	3001.475
1627.33587	3021.875
1630.63757	3027.175
1633.93707	3032.375
1637.23439	3024.575
1640.52951	3035.875
1643.82246	3026.675
1647.11321	3052.975
1650.40179	3065.975
1653.68819	3014.775
1656.97241	2899.075
1660.25446	2741.875
1663.53433	2620.675
1666.81203	2513.575
1670.08756	2440.875
1673.36092	2366.775
1676.63211	2325.675
1679.90115	2309.975
1683.16801	2255.775
1686.43272	2237.675
1689.69527	2229.075
1692.95567	2200.775
1696.2139	2175.575
1699.46999	2151.575
1702.72392	2123.275
1705.97571	2130.375
1709.22535	2104.475
1712.47284	2090.475
1715.71819	2081.875
1718.96139	2061.775
1722.20246	2027.975
1725.44139	2025.975
1728.67818	2008.875
1731.91284	1994.275
1735.14537	1969.475
1738.37576	1966.175
1741.60403	1962.075
1744.83017	1955.875
1748.05418	1943.175
1751.27607	1923.875
1754.49584	1910.275
1757.71349	1896.375
1760.92903	1905.875
1764.14244	1893.475
1767.35375	1894.675
1770.56294	1876.275
1773.77002	1870.475
1776.97499	1873.575
1780.17785	1871.275
1783.37861	1865.475
1786.57727	1872.375
1789.77382	1862.775
1792.96828	1861.175
1796.16064	1855.575
1799.3509	1853.075
1802.53907	1844.075
1805.72514	1842.275
1808.90913	1843.175
1812.09102	1829.075
1815.27083	1822.175
1818.44856	1825.575
1821.6242	1817.275
1824.79776	1815.875
1827.96924	1809.675
1831.13864	1806.875
1834.30597	1806.175
1837.47122	1797.575
1840.6344	1800.975
1843.7955	1803.475
1846.95454	1792.375
1850.11151	1779.775
1853.26642	1782.675
1856.41926	1768.075
1859.57004	1777.175
1862.71876	1763.775
1865.86542	1768.075
1869.01003	1755.375
1872.15258	1761.075
1875.29308	1751.275
1878.43152	1739.875
1881.56792	1745.975
1884.70227	1738.675
1887.83457	1734.375
1890.96482	1728.775
1894.09304	1725.775
1897.21921	1722.375
1900.34335	1718.175
1903.46544	1712.975
1906.58551	1711.075
1909.70353	1707.275
1912.81953	1711.175
1915.93349	1705.075
1919.04543	1695.075
1922.15534	1685.575
1925.26322	1675.575
1928.36908	1665.875
1931.47292	1666.675
1934.57473	1663.875
1937.67453	1661.675
1940.77232	1660.875
1943.86808	1646.975
1946.96184	1649.875
1950.05358	1639.975
1953.14331	1631.575
1956.23103	1630.875
1959.31675	1634.575
1962.40046	1619.875
1965.48217	1607.475
1968.56188	1612.475
1971.63959	1606.075
1974.7153	1588.675
1977.78901	1593.175
1980.86073	1582.475
1983.93046	1585.275
1986.99819	1572.875
1990.06394	1572.075
1993.1277	1563.375
1996.18947	1554.875
1999.24925	1551.175
2002.30706	1555.675
2005.36288	1545.475
2008.41672	1543.375
2011.46859	1541.475
2014.51848	1528.275
2017.56639	1535.075
2020.61233	1510.175
2023.6563	1509.075
2026.6983	1503.475
2029.73833	1500.075
2032.7764	1490.275
2035.8125	1496.375
2038.84664	1485.175
2041.87881	1495.275
2044.90903	1483.575
2047.93729	1482.375
2050.96359	1473.375
2053.98794	1478.675
2057.01034	1477.775
2060.03078	1479.475
2063.04927	1467.975
2066.06582	1462.975
2069.08042	1461.975
2072.09307	1465.275
2075.10378	1464.375
2078.11255	1458.475
2081.11938	1468.575
2084.12426	1464.975
2087.12722	1457.975
2090.12824	1466.075
2093.12732	1455.075
2096.12447	1458.375
2099.11969	1465.775
2102.11299	1461.975
2105.10435	1457.675
2108.09379	1459.175
2111.08131	1459.275
2114.0669	1457.175
2117.05057	1460.975
2120.03233	1454.575
2123.01216	1453.775
2125.99008	1457.475
2128.96609	1451.675
2131.94018	1447.975
2134.91236	1446.775
2137.88263	1457.175
2140.851	1449.075
2143.81746	1450.175
2146.78201	1456.175
2149.74466	1450.775
2152.7054	1451.275
2155.66425	1445.975
2158.6212	1451.475
2161.57625	1452.775
2164.52941	1448.575
2167.48067	1440.675
2170.43004	1438.075
2173.37752	1431.075
2176.32311	1432.875
2179.26681	1428.075
2182.20863	1434.775
2185.14856	1439.775
2188.08661	1423.675
2191.02278	1427.875
2193.95707	1421.775
2196.88948	1422.475
2199.82001	1422.375
2202.74867	1420.475
2205.67545	1420.575
2208.60037	1413.775
2211.52341	1416.375
2214.44458	1415.375
2217.36388	1411.075
2220.28132	1406.475
2223.1969	1397.575
2226.11061	1389.075
2229.02246	1394.275
2231.93245	1378.575
2234.84058	1378.275
2237.74686	1379.175
2240.65128	1377.175
2243.55385	1373.175
2246.45456	1372.475
2249.35343	1370.875
2252.25044	1372.875
2255.14561	1363.275
2258.03893	1356.975
2260.93041	1358.275
2263.82004	1351.075
2266.70783	1346.575
2269.59378	1347.875
2272.4779	1347.975
2275.36017	1335.375
2278.24061	1335.375
2281.11922	1330.275
2283.996	1318.075
2286.87094	1330.075
2289.74405	1325.675
2292.61534	1308.775
2295.4848	1309.375
2298.35243	1313.575
2301.21824	1304.375
2304.08223	1304.375
2306.94439	1303.775
2309.80474	1297.675
2312.66327	1306.675
2315.51999	1295.975
2318.37489	1297.675
2321.22797	1288.875
2324.07925	1294.375
2326.92871	1284.175
2329.77637	1291.475
2332.62222	1287.475
2335.46626	1280.775
2338.3085	1282.575
2341.14893	1282.875
2343.98756	1274.775
2346.8244	1269.875
2349.65943	1274.575
2352.49267	1264.475
2355.32411	1261.575
2358.15376	1262.475
2360.98161	1264.075
2363.80768	1259.575
2366.63195	1258.375
2369.45444	1256.975
2372.27514	1261.375
2375.09405	1261.275
2377.91118	1243.475
2380.72652	1249.375
2383.54009	1236.575
2386.35187	1252.375
2389.16188	1241.375
2391.97011	1240.275
2394.77657	1230.575
2397.58125	1228.075
2400.38416	1239.775
2403.18529	1227.775
2405.98466	1222.475
2408.78226	1219.775
2411.57809	1213.975
2414.37216	1212.375
2417.16446	1210.075
2419.955	1209.875
2422.74378	1209.175
2425.5308	1204.575
2428.31606	1208.275
2431.09956	1201.975
2433.88131	1195.875
2436.6613	1189.875
2439.43954	1194.275
2442.21603	1199.875
2444.99077	1192.475
2447.76377	1188.775
2450.53501	1187.975
2453.30451	1176.675
2456.07226	1180.075
2458.83827	1176.475
2461.60254	1170.875
2464.36507	1169.475
2467.12586	1173.975
2469.88492	1164.875
2472.64224	1167.575
2475.39782	1164.475
2478.15167	1161.375
2480.90379	1158.475
2483.65417	1165.275
2486.40283	1157.775
2489.14976	1160.075
2491.89497	1152.575
2494.63845	1153.375
2497.3802	1154.775
2500.12024	1158.275
2502.85855	1147.275
2505.59514	1144.175
2508.33002	1147.975
2511.06318	1138.475
2513.79462	1140.375
2516.52435	1142.775
2519.25237	1130.975
2521.97867	1134.975
2524.70327	1126.675
2527.42616	1132.575
2530.14734	1137.075
2532.86681	1122.275
2535.58458	1117.975
2538.30065	1114.275
2541.01501	1120.575
2543.72768	1121.175
2546.43864	1114.375
2549.14791	1113.775
2551.85548	1118.575
2554.56136	1111.975
2557.26554	1107.775
2559.96803	1101.575
2562.66883	1094.875
2565.36794	1102.075
2568.06536	1103.975
2570.7611	1096.275
2573.45514	1102.375
2576.14751	1099.875
2578.83819	1087.675
2581.52719	1088.375
2584.21451	1088.275
2586.90015	1088.875
2589.58411	1069.775
2592.2664	1079.275
2594.94701	1072.775
2597.62594	1080.075
2600.30321	1079.775
2602.9788	1079.475
2605.65273	1071.175
2608.32498	1061.675
2610.99557	1065.175
2613.66449	1070.175
2616.33175	1072.775
2618.99734	1071.675
2621.66128	1063.275
2624.32355	1064.775
2626.98416	1058.275
2629.64311	1065.275
2632.30041	1064.275
2634.95605	1064.075
2637.61004	1062.675
2640.26238	1060.375
2642.91306	1067.475
2645.56209	1063.275
2648.20948	1062.575
2650.85521	1062.675
2653.4993	1060.975
2656.14175	1066.775
2658.78255	1066.375
2661.42171	1063.075
2664.05923	1071.575
2666.6951	1069.975
2669.32934	1071.075
2671.96194	1063.275
2674.59291	1064.575
2677.22224	1069.875
2679.84993	1073.475
2682.476	1064.875
2685.10043	1067.675
2687.72324	1063.575
2690.34441	1068.875
2692.96396	1074.675
2695.58188	1072.375
2698.19818	1070.475
2700.81285	1082.075
2703.4259	1075.175
2706.03733	1071.475
2708.64714	1079.475
2711.25533	1077.275
2713.86191	1078.575
2716.46687	1082.175
2719.07021	1091.975
2721.67194	1089.575
2724.27206	1085.775
2726.87057	1091.375
2729.46747	1092.475
2732.06276	1091.575
2734.65644	1097.375
2737.24852	1101.675
2739.83899	1096.575
2742.42786	1102.775
2745.01513	1110.775
2747.60079	1113.275
2750.18486	1115.375
2752.76733	1126.875
2755.3482	1130.675
2757.92747	1135.475
2760.50515	1132.575
2763.08123	1142.275
2765.65573	1151.575
2768.22863	1146.675
2770.79994	1152.575
2773.36967	1155.275
2775.9378	1146.975
2778.50435	1148.875
2781.06932	1146.975
2783.6327	1153.775
2786.1945	1154.375
2788.75471	1155.275
2791.31335	1164.575
2793.87041	1163.875
2796.42589	1159.975
2798.97979	1163.275
2801.53212	1167.275
2804.08288	1169.475
2806.63206	1161.175
2809.17967	1165.875
2811.72571	1148.775
2814.27018	1153.675
2816.81308	1143.775
2819.35442	1147.875
2821.89419	1143.875
2824.43239	1136.275
2826.96904	1134.675
2829.50412	1136.975
2832.03763	1133.075
2834.56959	1132.775
2837.1	1144.575
2839.62884	1144.375
2842.15613	1161.375
2844.68186	1173.075
2847.20604	1188.775
2849.72867	1213.775
2852.24974	1235.175
2854.76927	1260.275
2857.28724	1288.475
2859.80367	1308.375
2862.31855	1350.875
2864.83189	1393.075
2867.34368	1415.775
2869.85393	1451.675
2872.36264	1486.375
2874.8698	1520.175
2877.37543	1550.075
2879.87952	1582.275
2882.38207	1609.675
2884.88308	1631.275
2887.38256	1663.375
2889.88051	1683.275
2892.37692	1701.275
2894.8718	1720.075
2897.36515	1713.675
2899.85698	1726.375
2902.34727	1746.475
2904.83604	1734.975
2907.32328	1731.475
2909.809	1747.075
2912.29319	1747.575
2914.77587	1748.175
2917.25702	1745.475
2919.73665	1758.575
2922.21476	1768.375
2924.69136	1773.175
2927.16644	1781.875
2929.64	1787.975
2932.11205	1777.275
2934.58258	1764.275
2937.05161	1761.075
2939.51912	1734.275
2941.98513	1717.175
2944.44962	1689.175
2946.91261	1645.775
2949.37409	1616.175
2951.83407	1587.175
2954.29254	1549.775
2956.74951	1510.675
2959.20498	1480.775
2961.65895	1447.575
2964.11142	1423.475
2966.56239	1398.575
2969.01186	1371.575
2971.45984	1341.775
2973.90632	1322.275
2976.35131	1295.275
2978.7948	1278.875
2981.23681	1257.075
2983.67732	1233.075
2986.11635	1206.375
2988.55388	1192.975
2990.98993	1176.875
2993.4245	1169.675
2995.85758	1154.575
2998.28917	1142.975
3000.71928	1139.975
3003.14791	1132.275
3005.57506	1122.475
3008.00073	1115.875
3010.42493	1106.575
3012.84764	1109.075
3015.26888	1099.075
3017.68865	1101.075
3020.10694	1093.275
3022.52376	1104.975
3024.9391	1088.975
3027.35298	1094.475
3029.76539	1081.975
3032.17632	1082.275
3034.5858	1081.275
3036.9938	1083.975
3039.40034	1076.275
3041.80542	1085.275
3044.20903	1082.375
3046.61118	1079.175
3049.01187	1080.875
3051.4111	1083.775
3053.80888	1081.375
3056.20519	1092.275
3058.60005	1086.675
3060.99345	1091.075
3063.3854	1093.975
3065.7759	1096.875
3068.16494	1098.075
3070.55254	1108.775
3072.93868	1109.375
3075.32338	1111.475
3077.70662	1104.475
3080.08842	1110.175
3082.46878	1116.175
3084.84769	1120.275
3087.22515	1122.375
3089.60118	1137.075
3091.97576	1135.375
3094.3489	1142.575
3096.72061	1152.075
3099.09087	1164.775
3101.4597	1156.875
3103.82709	1165.075
3106.19305	1180.675
3108.55757	1181.175
3110.92066	1181.875
3113.28232	1190.975
3115.64255	1196.875
3118.00134	1209.675
3120.35871	1208.475
3122.71466	1207.675
3125.06917	1220.375
3127.42226	1226.275
3129.77393	1236.375
3132.12417	1241.375
3134.47299	1244.375
3136.82039	1258.675
3139.16636	1266.975
3141.51092	1281.875
3143.85406	1289.875
3146.19579	1300.375
3148.53609	1309.975
3150.87499	1312.675
3153.21246	1327.575
3155.54853	1339.975
3157.88318	1333.275
3160.21642	1353.075
3162.54826	1356.875
3164.87868	1364.375
3167.2077	1381.875
3169.5353	1382.375
3171.86151	1393.175
3174.18631	1397.175
3176.5097	1411.375
3178.83169	1405.975
3181.15228	1408.975
3183.47147	1418.375
3185.78926	1430.675
3188.10565	1433.875
3190.42065	1443.975
3192.73424	1447.975
3195.04645	1448.875
3197.35725	1464.375
3199.66667	1468.875
3201.97469	1470.975
3204.28132	1480.075
3206.58656	1488.575
3208.8904	1501.175
3211.19287	1502.375
3213.49394	1510.775
3215.79363	1525.375
3218.09193	1517.575
3220.38884	1527.475
3222.68438	1525.675
3224.97853	1533.875
3227.2713	1538.575
3229.56269	1534.275
3231.8527	1553.075
3234.14133	1553.175
3236.42858	1551.075
3238.71446	1554.475
3240.99896	1550.375
3243.28209	1557.775
3245.56384	1561.875
3247.84423	1570.875
3250.12324	1575.275
3252.40088	1591.975
3254.67715	1589.475
3256.95205	1582.875
3259.22558	1587.975
3261.49775	1591.675
3263.76855	1591.175
3266.03799	1590.675
3268.30606	1588.575
3270.57277	1590.375
3272.83812	1585.875
3275.10211	1581.475
3277.36474	1580.775
3279.62601	1578.075
3281.88593	1572.075
3284.14448	1568.875
3286.40168	1573.075
3288.65753	1573.575
3290.91202	1556.875
3293.16516	1554.575
3295.41695	1545.275
3297.66738	1542.875
3299.91647	1528.675
3302.16421	1515.675
3304.4106	1522.375
3306.65564	1519.675
3308.89933	1499.675
3311.14169	1496.175
3313.38269	1481.175
3315.62236	1481.375
3317.86068	1467.375
3320.09766	1459.575
3322.3333	1444.675
3324.5676	1453.375
3326.80056	1416.875
3329.03219	1414.575
3331.26248	-0.225
3333.49143	-0.425
3335.71905	-0.425
