Data from AgNP_FTO_APTES_CRN_100uM_R6G_10uM_NaF_0.1M_Addition_RamanShift__10__18-43-08-119.txt Node

Date: Wed Dec 15 18:43:08 GMT 2021
User: TCL
Spectrometer: QEP01345
Trigger mode: 4
Integration Time (sec): 7.000000E0
Scans to average: 10
Electric dark correction enabled: true
Nonlinearity correction enabled: false
Boxcar width: 0
XAxis mode: Raman Shifts
Number of Pixels in Spectrum: 1044
>>>>>Begin Spectral Data<<<<<
46.04893	0.975
50.45542	-2.225
54.85868	-1.125
59.25871	0.175
63.6555	52.775
68.04907	57.875
72.43941	58.175
76.82654	64.475
81.21044	64.575
85.59113	68.575
89.96862	68.875
94.34289	67.875
98.71396	74.175
103.08183	83.175
107.4465	85.775
111.80798	82.075
116.16626	85.675
120.52136	85.875
124.87327	87.875
129.222	91.075
133.56755	94.275
137.90993	102.075
142.24913	110.175
146.58517	120.975
150.91804	141.975
155.24774	160.675
159.57429	193.275
163.89768	252.475
168.21792	319.875
172.53501	434.875
176.84895	605.175
181.15975	847.775
185.46741	1176.075
189.77193	1630.675
194.07331	2187.575
198.37157	2796.375
202.6667	3476.175
206.9587	4133.875
211.24758	4759.875
215.53334	5414.075
219.81599	6094.575
224.09553	6838.775
228.37195	7630.475
232.64527	8518.675
236.91549	9468.175
241.18261	10460.975
245.44663	11411.975
249.70755	12252.275
253.96539	13012.375
258.22014	13607.675
262.4718	14143.475
266.72039	14494.675
270.96589	14636.975
275.20832	14677.475
279.44768	14622.275
283.68397	14495.875
287.91719	14429.975
292.14735	14378.075
296.37445	14330.875
300.59849	14351.875
304.81948	14304.875
309.03742	14247.475
313.25231	14121.675
317.46415	13860.375
321.67296	13562.675
325.87872	13318.575
330.08145	13179.875
334.28114	13177.875
338.47781	13252.175
342.67145	13400.775
346.86207	13560.975
351.04966	13778.375
355.23424	13958.075
359.4158	14108.375
363.59435	14245.675
367.76989	14302.075
371.94243	14328.375
376.11196	14373.475
380.27849	14393.275
384.44203	14435.275
388.60257	14537.775
392.76012	14696.975
396.91468	14885.475
401.06626	15095.775
405.21485	15267.075
409.36047	15258.875
413.50311	15152.675
417.64277	15030.875
421.77947	15037.775
425.9132	15081.075
430.04396	15149.375
434.17176	15220.475
438.2966	15273.975
442.41849	15378.075
446.53742	15596.075
450.6534	15820.175
454.76644	16013.475
458.87653	16136.575
462.98368	16172.775
467.08789	16140.275
471.18916	16088.775
475.2875	16031.975
479.38291	15992.675
483.4754	15920.075
487.56496	15761.575
491.6516	15593.475
495.73531	15432.675
499.81612	15368.075
503.89401	15472.875
507.96899	15538.975
512.04106	15629.775
516.11023	15650.675
520.1765	15545.075
524.23987	15425.775
528.30034	15369.975
532.35792	15201.775
536.41261	15095.175
540.46441	14989.075
544.51333	15009.275
548.55936	15173.575
552.60252	15443.975
556.64279	15679.175
560.6802	15813.775
564.71473	15883.775
568.7464	16053.875
572.7752	16377.375
576.80114	16764.175
580.82422	17152.875
584.84444	17514.775
588.86181	17775.375
592.87633	17813.775
596.888	17669.475
600.89682	17341.475
604.9028	17405.775
608.90594	18062.975
612.90624	18802.275
616.90371	17948.875
620.89834	16004.575
624.89015	15157.875
628.87913	15109.875
632.86528	15209.575
636.84862	15277.475
640.82913	15197.775
644.80683	14941.075
648.78172	14789.575
652.75379	14762.375
656.72306	14838.975
660.68952	14969.675
664.65319	14945.275
668.61405	14839.675
672.57211	14842.675
676.52738	14847.375
680.47986	14891.175
684.42955	14853.975
688.37646	14801.875
692.32058	14826.575
696.26192	14923.475
700.20048	15034.675
704.13626	15197.175
708.06928	15276.775
711.99952	15306.975
715.927	15264.975
719.85171	15225.075
723.77365	15120.575
727.69284	14961.875
731.60928	14798.475
735.52295	14723.175
739.43388	14731.275
743.34206	14740.375
747.24749	14824.175
751.15017	14926.875
755.05012	15126.275
758.94733	15425.875
762.8418	15983.875
766.73354	16843.775
770.62254	17664.675
774.50882	17755.175
778.39237	17067.475
782.27321	16203.875
786.15132	15472.675
790.02671	15033.575
793.89938	14795.475
797.76935	14699.975
801.6366	14662.075
805.50115	14639.975
809.36299	14596.375
813.22213	14519.675
817.07857	14517.275
820.93231	14488.175
824.78336	14470.975
828.63172	14489.975
832.47738	14446.875
836.32036	14475.375
840.16066	14469.875
843.99827	14439.275
847.8332	14383.375
851.66546	14360.175
855.49504	14337.875
859.32195	14354.475
863.1462	14340.175
866.96777	14351.875
870.78668	14314.175
874.60293	14323.275
878.41652	14342.975
882.22745	14377.075
886.03573	14430.975
889.84136	14462.275
893.64433	14450.875
897.44466	14421.075
901.24235	14373.175
905.0374	14331.075
908.8298	14358.675
912.61957	14339.475
916.40671	14477.175
920.19121	14616.275
923.97308	14635.575
927.75233	14637.475
931.52895	14553.075
935.30295	14395.275
939.07433	14232.475
942.84309	14043.675
946.60924	13950.575
950.37278	13905.175
954.13371	13875.875
957.89203	13853.275
961.64774	13865.175
965.40086	13836.275
969.15137	13799.875
972.89929	13744.675
976.64461	13691.475
980.38733	13683.775
984.12747	13686.775
987.86502	13702.875
991.59999	13746.575
995.33237	13829.775
999.06217	13913.975
1002.78939	14067.275
1006.51404	14212.675
1010.23611	14428.075
1013.95561	14576.875
1017.67255	14560.875
1021.38692	14451.675
1025.09872	14288.275
1028.80796	14210.075
1032.51465	14165.275
1036.21877	14215.075
1039.92035	14290.675
1043.61937	14390.075
1047.31584	14490.475
1051.00976	14587.775
1054.70114	14741.275
1058.38998	14963.175
1062.07627	15281.475
1065.76003	15720.475
1069.44126	16112.775
1073.11995	16534.875
1076.79611	16651.075
1080.46974	16461.775
1084.14085	16097.175
1087.80943	15844.375
1091.47549	15695.475
1095.13903	15649.775
1098.80005	15468.975
1102.45857	15175.775
1106.11456	14862.275
1109.76805	14707.175
1113.41903	14643.975
1117.06751	14677.875
1120.71348	14773.575
1124.35696	14946.075
1127.99793	15146.275
1131.63641	15294.175
1135.2724	15225.375
1138.90589	15118.675
1142.5369	15085.375
1146.16542	15100.875
1149.79145	15168.275
1153.415	15264.175
1157.03607	15371.475
1160.65467	15636.775
1164.27079	16077.175
1167.88443	16649.875
1171.49561	17365.675
1175.10432	18248.175
1178.71056	19349.175
1182.31434	20346.775
1185.91565	20863.075
1189.51451	20833.075
1193.11091	20480.875
1196.70485	19906.075
1200.29634	19230.275
1203.88538	18637.475
1207.47197	18334.675
1211.05612	18053.675
1214.63782	17765.075
1218.21708	17406.975
1221.79391	16985.375
1225.36829	16720.675
1228.94024	16522.475
1232.50976	16463.275
1236.07685	16443.375
1239.6415	16381.775
1243.20374	16416.275
1246.76355	16485.375
1250.32093	16655.475
1253.8759	16877.475
1257.42845	17229.975
1260.97859	17577.375
1264.52631	17917.975
1268.07163	18214.975
1271.61453	18499.475
1275.15503	18840.675
1278.69312	19191.375
1282.22882	19564.975
1285.76211	19991.375
1289.29301	20546.075
1292.82151	21243.775
1296.34761	21951.075
1299.87133	22791.875
1303.39266	23640.475
1306.9116	24374.675
1310.42815	25003.175
1313.94233	25297.775
1317.45412	25355.475
1320.96354	25179.675
1324.47058	25047.075
1327.97525	25049.275
1331.47754	25038.675
1334.97747	25073.175
1338.47502	25158.475
1341.97022	25214.375
1345.46305	25288.175
1348.95352	25258.875
1352.44163	25241.075
1355.92738	25379.275
1359.41078	25844.775
1362.89183	26234.575
1366.37053	25822.075
1369.84688	24434.075
1373.32088	22581.875
1376.79254	21192.175
1380.26186	20497.975
1383.72883	20270.575
1387.19347	20083.175
1390.65578	19904.275
1394.11575	19725.875
1397.57339	19695.075
1401.0287	19695.675
1404.48168	19723.875
1407.93234	19558.475
1411.38068	19228.175
1414.82669	18736.675
1418.27039	18144.775
1421.71177	17576.075
1425.15083	17107.775
1428.58758	16885.675
1432.02203	16939.775
1435.45416	17154.975
1438.88399	17446.075
1442.31151	17659.875
1445.73673	17855.875
1449.15965	18001.575
1452.58027	18167.175
1455.9986	18322.175
1459.41463	18455.975
1462.82837	18753.175
1466.23982	19054.875
1469.64898	19330.975
1473.05586	19497.075
1476.46045	19617.875
1479.86276	19637.775
1483.26279	19630.775
1486.66054	19691.275
1490.05602	19811.875
1493.44922	20130.875
1496.84016	20564.975
1500.22882	21139.975
1503.61521	21946.275
1506.99934	22737.375
1510.38121	23275.275
1513.76081	23300.675
1517.13816	22817.175
1520.51324	22176.675
1523.88607	21588.975
1527.25665	21246.075
1530.62498	21056.975
1533.99105	20900.775
1537.35488	20629.675
1540.71647	20220.475
1544.07581	19763.475
1547.4329	19332.775
1550.78776	18951.075
1554.14038	18702.875
1557.49077	18584.775
1560.83892	18608.975
1564.18484	18695.675
1567.52853	18985.475
1570.86999	19361.775
1574.20922	19973.575
1577.54624	20555.075
1580.88103	20850.675
1584.2136	20773.675
1587.54395	20480.775
1590.87208	20269.975
1594.19801	20490.875
1597.52172	20908.675
1600.84321	20994.075
1604.16251	20434.175
1607.47959	19510.175
1610.79447	18453.975
1614.10715	17391.475
1617.41763	16497.075
1620.7259	15836.975
1624.03199	15369.875
1627.33587	15283.575
1630.63757	15454.575
1633.93707	15995.675
1637.23439	17001.275
1640.52951	18506.075
1643.82246	20284.875
1647.11321	21900.575
1650.40179	22537.375
1653.68819	21815.075
1656.97241	19924.475
1660.25446	17873.575
1663.53433	16164.275
1666.81203	14979.775
1670.08756	14140.375
1673.36092	13605.775
1676.63211	13268.375
1679.90115	13030.975
1683.16801	12844.275
1686.43272	12692.875
1689.69527	12634.175
1692.95567	12524.875
1696.2139	12521.975
1699.46999	12462.375
1702.72392	12471.275
1705.97571	12404.475
1709.22535	12360.475
1712.47284	12341.375
1715.71819	12319.075
1718.96139	12292.475
1722.20246	12240.475
1725.44139	12229.375
1728.67818	12163.075
1731.91284	12115.775
1735.14537	12082.675
1738.37576	12033.275
1741.60403	11990.175
1744.83017	11946.175
1748.05418	11953.275
1751.27607	11905.775
1754.49584	11896.375
1757.71349	11885.575
1760.92903	11863.775
1764.14244	11885.875
1767.35375	11880.375
1770.56294	11857.475
1773.77002	11832.075
1776.97499	11790.175
1780.17785	11756.975
1783.37861	11722.575
1786.57727	11717.675
1789.77382	11697.575
1792.96828	11666.975
1796.16064	11639.275
1799.3509	11578.575
1802.53907	11579.575
1805.72514	11565.275
1808.90913	11519.275
1812.09102	11531.775
1815.27083	11486.475
1818.44856	11471.175
1821.6242	11435.775
1824.79776	11447.575
1827.96924	11439.075
1831.13864	11424.275
1834.30597	11444.975
1837.47122	11423.275
1840.6344	11412.775
1843.7955	11416.975
1846.95454	11403.975
1850.11151	11393.475
1853.26642	11376.275
1856.41926	11349.175
1859.57004	11353.475
1862.71876	11311.575
1865.86542	11305.275
1869.01003	11316.775
1872.15258	11312.875
1875.29308	11276.175
1878.43152	11230.775
1881.56792	11233.475
1884.70227	11233.475
1887.83457	11200.975
1890.96482	11156.075
1894.09304	11153.375
1897.21921	11148.875
1900.34335	11153.275
1903.46544	11121.275
1906.58551	11080.975
1909.70353	11091.275
1912.81953	11071.675
1915.93349	11056.975
1919.04543	11013.675
1922.15534	10976.775
1925.26322	10986.275
1928.36908	10950.975
1931.47292	10909.375
1934.57473	10900.275
1937.67453	10860.475
1940.77232	10862.175
1943.86808	10816.775
1946.96184	10798.575
1950.05358	10771.675
1953.14331	10742.875
1956.23103	10733.675
1959.31675	10696.275
1962.40046	10642.475
1965.48217	10636.475
1968.56188	10629.075
1971.63959	10556.575
1974.7153	10506.475
1977.78901	10490.475
1980.86073	10462.075
1983.93046	10432.275
1986.99819	10390.975
1990.06394	10367.275
1993.1277	10346.475
1996.18947	10280.175
1999.24925	10275.475
2002.30706	10230.175
2005.36288	10197.375
2008.41672	10180.875
2011.46859	10133.475
2014.51848	10133.075
2017.56639	10101.075
2020.61233	10058.875
2023.6563	10065.175
2026.6983	10016.675
2029.73833	10007.175
2032.7764	9975.075
2035.8125	9958.575
2038.84664	9940.775
2041.87881	9897.675
2044.90903	9878.475
2047.93729	9859.375
2050.96359	9824.475
2053.98794	9842.875
2057.01034	9839.575
2060.03078	9827.775
2063.04927	9816.675
2066.06582	9800.575
2069.08042	9795.775
2072.09307	9794.275
2075.10378	9796.275
2078.11255	9781.175
2081.11938	9750.875
2084.12426	9770.875
2087.12722	9758.275
2090.12824	9757.875
2093.12732	9753.775
2096.12447	9753.175
2099.11969	9744.775
2102.11299	9762.075
2105.10435	9766.975
2108.09379	9755.775
2111.08131	9771.775
2114.0669	9771.675
2117.05057	9769.975
2120.03233	9778.875
2123.01216	9815.275
2125.99008	9780.475
2128.96609	9783.175
2131.94018	9806.975
2134.91236	9794.275
2137.88263	9812.475
2140.851	9818.975
2143.81746	9819.775
2146.78201	9785.175
2149.74466	9798.275
2152.7054	9810.175
2155.66425	9831.375
2158.6212	9824.375
2161.57625	9842.575
2164.52941	9815.175
2167.48067	9794.675
2170.43004	9806.975
2173.37752	9803.475
2176.32311	9782.475
2179.26681	9776.675
2182.20863	9776.875
2185.14856	9782.475
2188.08661	9753.075
2191.02278	9773.775
2193.95707	9738.275
2196.88948	9742.975
2199.82001	9733.375
2202.74867	9709.175
2205.67545	9694.975
2208.60037	9711.175
2211.52341	9679.175
2214.44458	9652.375
2217.36388	9650.875
2220.28132	9627.975
2223.1969	9602.775
2226.11061	9595.475
2229.02246	9580.075
2231.93245	9587.075
2234.84058	9548.175
2237.74686	9520.475
2240.65128	9529.275
2243.55385	9493.675
2246.45456	9477.975
2249.35343	9464.075
2252.25044	9470.175
2255.14561	9425.975
2258.03893	9424.675
2260.93041	9410.975
2263.82004	9357.175
2266.70783	9357.075
2269.59378	9333.275
2272.4779	9319.175
2275.36017	9272.375
2278.24061	9299.175
2281.11922	9224.575
2283.996	9220.675
2286.87094	9217.875
2289.74405	9199.975
2292.61534	9195.275
2295.4848	9161.475
2298.35243	9174.575
2301.21824	9154.575
2304.08223	9154.975
2306.94439	9127.275
2309.80474	9124.475
2312.66327	9127.175
2315.51999	9093.775
2318.37489	9103.875
2321.22797	9081.675
2324.07925	9087.675
2326.92871	9056.575
2329.77637	9081.975
2332.62222	9050.075
2335.46626	9026.175
2338.3085	9024.775
2341.14893	9004.375
2343.98756	8988.475
2346.8244	8969.375
2349.65943	8978.875
2352.49267	8955.575
2355.32411	8985.975
2358.15376	8964.775
2360.98161	8971.975
2363.80768	8970.975
2366.63195	8952.575
2369.45444	8936.475
2372.27514	8929.475
2375.09405	8916.775
2377.91118	8907.175
2380.72652	8882.175
2383.54009	8866.975
2386.35187	8842.175
2389.16188	8823.275
2391.97011	8806.875
2394.77657	8811.375
2397.58125	8766.675
2400.38416	8762.275
2403.18529	8745.275
2405.98466	8721.075
2408.78226	8707.475
2411.57809	8700.275
2414.37216	8702.875
2417.16446	8689.375
2419.955	8670.875
2422.74378	8692.175
2425.5308	8649.175
2428.31606	8634.975
2431.09956	8642.975
2433.88131	8614.075
2436.6613	8631.675
2439.43954	8626.175
2442.21603	8592.875
2444.99077	8574.775
2447.76377	8586.875
2450.53501	8575.575
2453.30451	8573.875
2456.07226	8566.375
2458.83827	8529.875
2461.60254	8534.575
2464.36507	8530.875
2467.12586	8545.275
2469.88492	8517.075
2472.64224	8514.175
2475.39782	8498.875
2478.15167	8517.375
2480.90379	8512.875
2483.65417	8506.075
2486.40283	8485.875
2489.14976	8481.975
2491.89497	8492.175
2494.63845	8487.975
2497.3802	8476.175
2500.12024	8464.975
2502.85855	8445.875
2505.59514	8443.275
2508.33002	8445.875
2511.06318	8416.875
2513.79462	8410.575
2516.52435	8398.375
2519.25237	8413.275
2521.97867	8407.775
2524.70327	8360.875
2527.42616	8360.875
2530.14734	8358.475
2532.86681	8344.575
2535.58458	8335.075
2538.30065	8310.775
2541.01501	8306.375
2543.72768	8313.475
2546.43864	8299.375
2549.14791	8269.975
2551.85548	8241.975
2554.56136	8238.975
2557.26554	8209.275
2559.96803	8187.075
2562.66883	8186.875
2565.36794	8190.575
2568.06536	8181.275
2570.7611	8163.075
2573.45514	8177.475
2576.14751	8153.375
2578.83819	8134.875
2581.52719	8124.875
2584.21451	8114.675
2586.90015	8101.175
2589.58411	8081.875
2592.2664	8070.575
2594.94701	8046.775
2597.62594	8034.175
2600.30321	8004.075
2602.9788	8012.575
2605.65273	7998.775
2608.32498	7974.375
2610.99557	7965.975
2613.66449	7970.275
2616.33175	7974.675
2618.99734	7950.075
2621.66128	7942.775
2624.32355	7927.775
2626.98416	7935.575
2629.64311	7887.275
2632.30041	7920.075
2634.95605	7923.975
2637.61004	7880.075
2640.26238	7887.775
2642.91306	7892.275
2645.56209	7861.475
2648.20948	7861.275
2650.85521	7860.875
2653.4993	7851.375
2656.14175	7879.675
2658.78255	7850.975
2661.42171	7832.075
2664.05923	7838.675
2666.6951	7847.175
2669.32934	7848.675
2671.96194	7830.875
2674.59291	7834.575
2677.22224	7835.075
2679.84993	7848.475
2682.476	7848.075
2685.10043	7844.075
2687.72324	7831.675
2690.34441	7841.675
2692.96396	7821.975
2695.58188	7841.875
2698.19818	7848.075
2700.81285	7828.475
2703.4259	7853.975
2706.03733	7882.375
2708.64714	7870.575
2711.25533	7865.375
2713.86191	7841.775
2716.46687	7829.975
2719.07021	7840.675
2721.67194	7837.875
2724.27206	7838.575
2726.87057	7823.175
2729.46747	7825.375
2732.06276	7814.575
2734.65644	7801.675
2737.24852	7833.875
2739.83899	7808.375
2742.42786	7804.575
2745.01513	7785.475
2747.60079	7793.175
2750.18486	7762.275
2752.76733	7783.675
2755.3482	7766.075
2757.92747	7758.875
2760.50515	7753.675
2763.08123	7723.675
2765.65573	7715.375
2768.22863	7725.475
2770.79994	7718.275
2773.36967	7686.475
2775.9378	7697.175
2778.50435	7666.875
2781.06932	7622.475
2783.6327	7656.775
2786.1945	7626.475
2788.75471	7618.075
2791.31335	7620.875
2793.87041	7609.275
2796.42589	7603.775
2798.97979	7567.275
2801.53212	7558.375
2804.08288	7554.975
2806.63206	7531.575
2809.17967	7508.975
2811.72571	7498.175
2814.27018	7518.375
2816.81308	7483.775
2819.35442	7469.475
2821.89419	7450.075
2824.43239	7441.775
2826.96904	7421.675
2829.50412	7445.775
2832.03763	7435.275
2834.56959	7422.375
2837.1	7410.775
2839.62884	7438.975
2842.15613	7415.375
2844.68186	7437.975
2847.20604	7457.475
2849.72867	7455.875
2852.24974	7453.475
2854.76927	7455.675
2857.28724	7451.575
2859.80367	7432.475
2862.31855	7422.875
2864.83189	7423.875
2867.34368	7388.775
2869.85393	7390.775
2872.36264	7380.575
2874.8698	7360.575
2877.37543	7374.475
2879.87952	7372.875
2882.38207	7365.075
2884.88308	7384.475
2887.38256	7375.575
2889.88051	7359.675
2892.37692	7362.775
2894.8718	7349.975
2897.36515	7340.575
2899.85698	7354.875
2902.34727	7363.675
2904.83604	7357.575
2907.32328	7356.575
2909.809	7372.175
2912.29319	7362.875
2914.77587	7377.475
2917.25702	7371.175
2919.73665	7332.575
2922.21476	7370.875
2924.69136	7370.375
2927.16644	7361.075
2929.64	7366.375
2932.11205	7352.475
2934.58258	7330.175
2937.05161	7342.175
2939.51912	7329.175
2941.98513	7340.575
2944.44962	7309.275
2946.91261	7271.975
2949.37409	7275.875
2951.83407	7246.975
2954.29254	7251.375
2956.74951	7234.575
2959.20498	7233.075
2961.65895	7243.275
2964.11142	7218.075
2966.56239	7204.875
2969.01186	7194.975
2971.45984	7152.975
2973.90632	7158.675
2976.35131	7122.075
2978.7948	7112.275
2981.23681	7101.675
2983.67732	7090.875
2986.11635	7090.975
2988.55388	7067.675
2990.98993	7055.275
2993.4245	7024.775
2995.85758	7027.875
2998.28917	7012.775
3000.71928	6993.575
3003.14791	6976.275
3005.57506	6994.275
3008.00073	6964.175
3010.42493	6958.875
3012.84764	6939.375
3015.26888	6941.575
3017.68865	6920.575
3020.10694	6914.775
3022.52376	6902.075
3024.9391	6892.575
3027.35298	6872.475
3029.76539	6870.175
3032.17632	6886.875
3034.5858	6868.675
3036.9938	6862.975
3039.40034	6839.475
3041.80542	6844.775
3044.20903	6830.375
3046.61118	6804.875
3049.01187	6803.075
3051.4111	6818.275
3053.80888	6793.075
3056.20519	6791.875
3058.60005	6780.075
3060.99345	6755.675
3063.3854	6763.675
3065.7759	6746.075
3068.16494	6732.375
3070.55254	6704.975
3072.93868	6704.375
3075.32338	6678.975
3077.70662	6664.775
3080.08842	6658.975
3082.46878	6646.675
3084.84769	6643.475
3087.22515	6636.175
3089.60118	6634.975
3091.97576	6634.875
3094.3489	6621.875
3096.72061	6637.375
3099.09087	6621.075
3101.4597	6621.075
3103.82709	6627.875
3106.19305	6621.475
3108.55757	6613.575
3110.92066	6590.675
3113.28232	6587.475
3115.64255	6569.575
3118.00134	6556.475
3120.35871	6556.475
3122.71466	6549.575
3125.06917	6533.775
3127.42226	6532.575
3129.77393	6530.275
3132.12417	6535.775
3134.47299	6537.575
3136.82039	6547.675
3139.16636	6542.975
3141.51092	6543.575
3143.85406	6559.375
3146.19579	6544.175
3148.53609	6571.475
3150.87499	6553.975
3153.21246	6552.775
3155.54853	6580.475
3157.88318	6568.075
3160.21642	6573.875
3162.54826	6557.075
3164.87868	6575.975
3167.2077	6578.975
3169.5353	6575.375
3171.86151	6599.175
3174.18631	6567.675
3176.5097	6569.575
3178.83169	6554.775
3181.15228	6562.775
3183.47147	6542.675
3185.78926	6585.575
3188.10565	6551.075
3190.42065	6543.175
3192.73424	6541.975
3195.04645	6535.175
3197.35725	6526.875
3199.66667	6538.275
3201.97469	6552.775
3204.28132	6559.975
3206.58656	6564.275
3208.8904	6547.475
3211.19287	6564.775
3213.49394	6551.475
3215.79363	6564.775
3218.09193	6551.375
3220.38884	6563.375
3222.68438	6568.675
3224.97853	6557.975
3227.2713	6550.475
3229.56269	6546.475
3231.8527	6530.975
3234.14133	6507.875
3236.42858	6491.875
3238.71446	6512.375
3240.99896	6476.775
3243.28209	6490.775
3245.56384	6531.275
3247.84423	6522.275
3250.12324	6481.875
3252.40088	6463.375
3254.67715	6468.175
3256.95205	6463.375
3259.22558	6448.875
3261.49775	6453.975
3263.76855	6448.275
3266.03799	6424.775
3268.30606	6399.875
3270.57277	6391.575
3272.83812	6375.675
3275.10211	6377.575
3277.36474	6360.975
3279.62601	6385.875
3281.88593	6358.475
3284.14448	6359.075
3286.40168	6361.875
3288.65753	6332.875
3290.91202	6339.675
3293.16516	6307.275
3295.41695	6300.075
3297.66738	6250.275
3299.91647	6239.875
3302.16421	6196.075
3304.4106	6165.475
3306.65564	6134.375
3308.89933	6099.175
3311.14169	6064.075
3313.38269	6013.275
3315.62236	6001.075
3317.86068	5922.775
3320.09766	5867.775
3322.3333	5825.575
3324.5676	5816.475
3326.80056	5723.675
3329.03219	5700.075
3331.26248	3.875
3333.49143	-0.925
3335.71905	-0.625
