Data from AgNP_FTO_APTES_CRN_5uM_R6G_10uM_NaF_0.1M_Addition_RamanShift__39__16-11-27-947.txt Node

Date: Wed Dec 15 16:11:27 GMT 2021
User: TCL
Spectrometer: QEP01345
Trigger mode: 4
Integration Time (sec): 7.000000E0
Scans to average: 10
Electric dark correction enabled: true
Nonlinearity correction enabled: false
Boxcar width: 0
XAxis mode: Raman Shifts
Number of Pixels in Spectrum: 1044
>>>>>Begin Spectral Data<<<<<
46.04893	1.175
50.45542	-2.625
54.85868	-0.825
59.25871	-3.225
63.6555	133.775
68.04907	142.775
72.43941	150.075
76.82654	153.675
81.21044	156.075
85.59113	166.875
89.96862	172.875
94.34289	172.175
98.71396	177.775
103.08183	192.075
107.4465	190.875
111.80798	201.175
116.16626	208.175
120.52136	213.675
124.87327	220.775
129.222	234.175
133.56755	242.775
137.90993	265.575
142.24913	292.875
146.58517	322.875
150.91804	379.175
155.24774	445.875
159.57429	554.775
163.89768	708.875
168.21792	938.675
172.53501	1279.875
176.84895	1772.575
181.15975	2494.875
185.46741	3488.075
189.77193	4820.575
194.07331	6438.475
198.37157	8296.375
202.6667	10250.775
206.9587	12212.175
211.24758	14113.775
215.53334	16015.075
219.81599	18029.775
224.09553	20227.075
228.37195	22697.675
232.64527	25371.175
236.91549	28189.075
241.18261	31080.175
245.44663	33783.275
249.70755	36242.275
253.96539	38425.375
258.22014	40253.375
262.4718	41779.975
266.72039	42879.775
270.96589	43397.675
275.20832	43459.575
279.44768	43128.075
283.68397	42690.175
287.91719	42245.675
292.14735	41867.975
296.37445	41703.775
300.59849	41705.075
304.81948	41869.575
309.03742	41935.575
313.25231	41795.675
317.46415	41458.375
321.67296	40982.375
325.87872	40633.975
330.08145	40520.575
334.28114	40663.475
338.47781	40951.975
342.67145	41489.675
346.86207	42105.475
351.04966	42807.575
355.23424	43562.375
359.4158	44267.075
363.59435	44845.075
367.76989	45299.975
371.94243	45618.475
376.11196	45855.175
380.27849	46076.475
384.44203	46404.075
388.60257	46789.675
392.76012	47201.675
396.91468	47712.475
401.06626	48391.075
405.21485	48850.075
409.36047	48952.975
413.50311	48739.475
417.64277	48744.675
421.77947	48939.775
425.9132	49239.075
430.04396	49605.375
434.17176	49911.075
438.2966	50412.875
442.41849	51249.475
446.53742	52835.075
450.6534	54507.675
454.76644	55587.375
458.87653	55700.175
462.98368	55068.475
467.08789	54066.875
471.18916	52925.175
475.2875	51719.975
479.38291	50811.875
483.4754	50140.575
487.56496	49706.675
491.6516	49371.075
495.73531	49178.675
499.81612	49231.675
503.89401	49622.475
507.96899	49890.875
512.04106	49954.075
516.11023	49704.375
520.1765	49512.975
524.23987	49340.375
528.30034	49380.875
532.35792	49147.775
536.41261	48616.075
540.46441	48077.275
544.51333	47808.575
548.55936	48099.075
552.60252	48781.775
556.64279	49831.275
560.6802	50593.675
564.71473	50872.675
568.7464	51200.375
572.7752	51976.175
576.80114	53127.675
580.82422	54655.675
584.84444	56870.475
588.86181	59671.675
592.87633	62104.475
596.888	62370.675
600.89682	60103.975
604.9028	59177.275
608.90594	61638.775
612.90624	64149.475
616.90371	60866.375
620.89834	54029.675
624.89015	51046.775
628.87913	50579.675
632.86528	50347.075
636.84862	49938.775
640.82913	49064.275
644.80683	48221.175
648.78172	47844.375
652.75379	47938.075
656.72306	48584.475
660.68952	49225.475
664.65319	48907.675
668.61405	48361.575
672.57211	48416.375
676.52738	48609.775
680.47986	48527.475
684.42955	48245.275
688.37646	48135.775
692.32058	48541.875
696.26192	49240.975
700.20048	50004.875
704.13626	50259.875
708.06928	50093.675
711.99952	49874.775
715.927	49952.675
719.85171	50163.175
723.77365	50166.775
727.69284	49541.075
731.60928	49052.075
735.52295	48870.275
739.43388	48835.175
743.34206	49059.975
747.24749	49250.775
751.15017	49619.875
755.05012	50267.875
758.94733	51222.675
762.8418	52853.575
766.73354	55282.375
770.62254	57403.875
774.50882	57649.675
778.39237	55899.175
782.27321	53331.575
786.15132	51242.075
790.02671	49946.575
793.89938	49344.475
797.76935	49222.175
801.6366	49160.375
805.50115	49167.875
809.36299	48962.075
813.22213	48625.675
817.07857	48374.875
820.93231	48231.875
824.78336	48041.975
828.63172	48095.775
832.47738	48202.275
836.32036	48366.375
840.16066	48619.575
843.99827	48728.475
847.8332	48653.175
851.66546	48563.275
855.49504	48594.275
859.32195	48586.375
863.1462	48479.875
866.96777	48339.675
870.78668	48264.775
874.60293	48323.175
878.41652	48384.875
882.22745	48596.075
886.03573	48728.875
889.84136	48661.675
893.64433	48413.575
897.44466	48274.475
901.24235	48179.275
905.0374	48102.175
908.8298	48129.275
912.61957	48161.675
916.40671	48548.875
920.19121	49027.275
923.97308	49501.675
927.75233	49683.275
931.52895	49429.275
935.30295	48968.475
939.07433	48455.775
942.84309	48091.675
946.60924	48061.875
950.37278	48018.075
954.13371	47893.375
957.89203	47762.375
961.64774	47641.675
965.40086	47647.675
969.15137	47613.375
972.89929	47514.175
976.64461	47724.975
980.38733	47881.975
984.12747	48159.075
987.86502	48499.575
991.59999	48953.275
995.33237	49604.375
999.06217	50710.375
1002.78939	52080.875
1006.51404	53095.275
1010.23611	53837.575
1013.95561	54269.175
1017.67255	54260.675
1021.38692	53566.975
1025.09872	52894.575
1028.80796	52917.375
1032.51465	54071.975
1036.21877	55199.475
1039.92035	55392.575
1043.61937	54767.875
1047.31584	53908.875
1051.00976	52892.175
1054.70114	52258.375
1058.38998	52171.375
1062.07627	52271.975
1065.76003	52654.375
1069.44126	53195.675
1073.11995	54021.975
1076.79611	54731.875
1080.46974	55145.975
1084.14085	55359.475
1087.80943	55486.675
1091.47549	55513.675
1095.13903	55156.675
1098.80005	54471.575
1102.45857	53731.475
1106.11456	53300.075
1109.76805	53192.175
1113.41903	53318.375
1117.06751	53477.175
1120.71348	53722.775
1124.35696	54062.675
1127.99793	54326.675
1131.63641	54549.275
1135.2724	54442.275
1138.90589	54369.075
1142.5369	54430.375
1146.16542	54589.975
1149.79145	54730.275
1153.415	55049.775
1157.03607	55735.775
1160.65467	57145.275
1164.27079	59392.475
1167.88443	61919.575
1171.49561	64489.875
1175.10432	67814.875
1178.71056	72106.775
1182.31434	76367.975
1185.91565	78358.675
1189.51451	77531.775
1193.11091	75259.275
1196.70485	72745.075
1200.29634	70570.775
1203.88538	69261.475
1207.47197	68408.275
1211.05612	67705.375
1214.63782	66747.275
1218.21708	65852.575
1221.79391	65113.875
1225.36829	64668.575
1228.94024	64070.475
1232.50976	62993.275
1236.07685	61950.975
1239.6415	61374.475
1243.20374	61408.075
1246.76355	61925.575
1250.32093	62897.775
1253.8759	64155.275
1257.42845	65694.175
1260.97859	67266.975
1264.52631	68905.575
1268.07163	70577.675
1271.61453	72415.675
1275.15503	74365.375
1278.69312	76232.475
1282.22882	77870.175
1285.76211	79844.075
1289.29301	82025.075
1292.82151	84681.675
1296.34761	87962.975
1299.87133	92437.275
1303.39266	97589.975
1306.9116	102629.275
1310.42815	106663.475
1313.94233	108569.675
1317.45412	107828.575
1320.96354	105439.275
1324.47058	102914.975
1327.97525	100947.475
1331.47754	99853.575
1334.97747	99201.675
1338.47502	98351.175
1341.97022	96560.775
1345.46305	94312.275
1348.95352	92937.675
1352.44163	93620.375
1355.92738	97080.375
1359.41078	102038.175
1362.89183	105542.775
1366.37053	104047.375
1369.84688	96843.475
1373.32088	87354.475
1376.79254	80649.175
1380.26186	78165.375
1383.72883	78185.475
1387.19347	78148.375
1390.65578	76997.275
1394.11575	76187.875
1397.57339	76601.475
1401.0287	77945.075
1404.48168	79550.475
1407.93234	80498.375
1411.38068	80424.875
1414.82669	79495.575
1418.27039	77526.675
1421.71177	74997.175
1425.15083	72669.575
1428.58758	71581.575
1432.02203	72134.175
1435.45416	73906.875
1438.88399	75935.575
1442.31151	77384.675
1445.73673	78083.975
1449.15965	78188.175
1452.58027	77532.075
1455.9986	76612.275
1459.41463	76297.875
1462.82837	77117.475
1466.23982	78878.175
1469.64898	80825.975
1473.05586	82385.975
1476.46045	83275.575
1479.86276	83363.875
1483.26279	82987.575
1486.66054	82623.175
1490.05602	82826.175
1493.44922	83021.475
1496.84016	82761.275
1500.22882	82673.775
1503.61521	83211.075
1506.99934	84136.375
1510.38121	84917.675
1513.76081	84698.375
1517.13816	83248.975
1520.51324	81141.275
1523.88607	79433.675
1527.25665	78878.775
1530.62498	79105.575
1533.99105	79215.975
1537.35488	78761.175
1540.71647	77892.375
1544.07581	76723.775
1547.4329	75350.875
1550.78776	73933.875
1554.14038	72798.675
1557.49077	71992.275
1560.83892	71332.375
1564.18484	71076.275
1567.52853	71032.275
1570.86999	71525.275
1574.20922	72671.575
1577.54624	73880.675
1580.88103	74645.375
1584.2136	75764.475
1587.54395	78438.475
1590.87208	82656.675
1594.19801	88231.875
1597.52172	93621.775
1600.84321	95570.275
1604.16251	92101.575
1607.47959	84889.675
1610.79447	76896.075
1614.10715	70070.375
1617.41763	65317.975
1620.7259	62515.075
1624.03199	61298.275
1627.33587	61676.075
1630.63757	63364.875
1633.93707	66707.975
1637.23439	72234.875
1640.52951	80277.275
1643.82246	89511.075
1647.11321	96380.975
1650.40179	96310.975
1653.68819	88429.575
1656.97241	77217.475
1660.25446	67440.475
1663.53433	60890.975
1666.81203	56808.975
1670.08756	54347.775
1673.36092	52790.075
1676.63211	51812.375
1679.90115	51061.775
1683.16801	50510.375
1686.43272	50050.875
1689.69527	49818.175
1692.95567	49546.675
1696.2139	49455.675
1699.46999	49450.675
1702.72392	49321.975
1705.97571	49239.575
1709.22535	49190.875
1712.47284	49116.975
1715.71819	49133.075
1718.96139	49020.775
1722.20246	48908.675
1725.44139	48858.775
1728.67818	48559.875
1731.91284	48383.175
1735.14537	48169.775
1738.37576	48004.075
1741.60403	47916.675
1744.83017	47783.775
1748.05418	47708.175
1751.27607	47596.875
1754.49584	47588.775
1757.71349	47539.875
1760.92903	47573.575
1764.14244	47559.975
1767.35375	47603.175
1770.56294	47574.575
1773.77002	47540.775
1776.97499	47540.775
1780.17785	47459.575
1783.37861	47468.075
1786.57727	47363.275
1789.77382	47231.675
1792.96828	47188.175
1796.16064	47171.475
1799.3509	47111.775
1802.53907	47070.175
1805.72514	46965.375
1808.90913	46843.175
1812.09102	46841.575
1815.27083	46750.575
1818.44856	46669.175
1821.6242	46662.575
1824.79776	46612.775
1827.96924	46557.175
1831.13864	46571.675
1834.30597	46597.675
1837.47122	46603.875
1840.6344	46600.075
1843.7955	46601.375
1846.95454	46579.475
1850.11151	46636.475
1853.26642	46592.675
1856.41926	46624.675
1859.57004	46658.075
1862.71876	46560.275
1865.86542	46494.575
1869.01003	46600.975
1872.15258	46551.175
1875.29308	46602.075
1878.43152	46534.475
1881.56792	46534.575
1884.70227	46485.675
1887.83457	46477.575
1890.96482	46487.075
1894.09304	46383.575
1897.21921	46395.475
1900.34335	46292.275
1903.46544	46312.375
1906.58551	46278.175
1909.70353	46273.675
1912.81953	46194.075
1915.93349	46171.075
1919.04543	46061.675
1922.15534	46073.775
1925.26322	45989.575
1928.36908	45903.075
1931.47292	45824.775
1934.57473	45691.175
1937.67453	45647.375
1940.77232	45572.875
1943.86808	45505.775
1946.96184	45393.375
1950.05358	45301.175
1953.14331	45195.975
1956.23103	45093.475
1959.31675	45098.175
1962.40046	44904.375
1965.48217	44801.975
1968.56188	44666.775
1971.63959	44585.175
1974.7153	44416.275
1977.78901	44322.075
1980.86073	44233.075
1983.93046	44154.375
1986.99819	44007.775
1990.06394	43954.175
1993.1277	43883.275
1996.18947	43696.175
1999.24925	43643.875
2002.30706	43496.975
2005.36288	43408.075
2008.41672	43350.175
2011.46859	43222.975
2014.51848	43127.675
2017.56639	43062.275
2020.61233	42981.175
2023.6563	42910.775
2026.6983	42934.375
2029.73833	42852.675
2032.7764	42795.375
2035.8125	42660.275
2038.84664	42564.175
2041.87881	42556.575
2044.90903	42555.875
2047.93729	42468.975
2050.96359	42420.875
2053.98794	42479.275
2057.01034	42472.175
2060.03078	42394.175
2063.04927	42326.975
2066.06582	42362.675
2069.08042	42291.175
2072.09307	42285.375
2075.10378	42286.375
2078.11255	42245.875
2081.11938	42291.575
2084.12426	42248.375
2087.12722	42247.275
2090.12824	42264.275
2093.12732	42291.975
2096.12447	42302.975
2099.11969	42296.675
2102.11299	42284.675
2105.10435	42314.175
2108.09379	42483.675
2111.08131	42516.175
2114.0669	42488.675
2117.05057	42510.075
2120.03233	42529.775
2123.01216	42594.875
2125.99008	42656.575
2128.96609	42675.775
2131.94018	42685.275
2134.91236	42728.075
2137.88263	42781.175
2140.851	42779.175
2143.81746	42865.875
2146.78201	42911.875
2149.74466	42918.675
2152.7054	42990.275
2155.66425	42967.075
2158.6212	42946.575
2161.57625	42973.675
2164.52941	43004.475
2167.48067	43004.375
2170.43004	43043.575
2173.37752	43013.475
2176.32311	43025.075
2179.26681	43030.275
2182.20863	43051.575
2185.14856	43072.775
2188.08661	43062.275
2191.02278	43123.675
2193.95707	43068.875
2196.88948	43064.575
2199.82001	43110.675
2202.74867	43116.975
2205.67545	43069.575
2208.60037	43022.975
2211.52341	43008.075
2214.44458	42955.975
2217.36388	42897.475
2220.28132	42902.875
2223.1969	42827.075
2226.11061	42778.875
2229.02246	42734.775
2231.93245	42660.075
2234.84058	42577.975
2237.74686	42528.175
2240.65128	42552.775
2243.55385	42458.575
2246.45456	42360.475
2249.35343	42313.675
2252.25044	42275.975
2255.14561	42209.175
2258.03893	42200.175
2260.93041	42189.775
2263.82004	42114.775
2266.70783	42069.275
2269.59378	41879.175
2272.4779	41831.975
2275.36017	41730.475
2278.24061	41654.875
2281.11922	41614.575
2283.996	41517.275
2286.87094	41563.175
2289.74405	41531.575
2292.61534	41540.475
2295.4848	41490.875
2298.35243	41500.575
2301.21824	41472.775
2304.08223	41515.775
2306.94439	41552.475
2309.80474	41580.075
2312.66327	41599.775
2315.51999	41551.875
2318.37489	41577.275
2321.22797	41511.875
2324.07925	41457.975
2326.92871	41443.575
2329.77637	41398.775
2332.62222	41390.375
2335.46626	41414.175
2338.3085	41363.975
2341.14893	41404.175
2343.98756	41378.175
2346.8244	41383.275
2349.65943	41329.175
2352.49267	41267.475
2355.32411	41248.475
2358.15376	41214.575
2360.98161	41233.175
2363.80768	41179.875
2366.63195	41190.275
2369.45444	41142.175
2372.27514	41056.475
2375.09405	41017.775
2377.91118	40966.775
2380.72652	40926.175
2383.54009	40895.075
2386.35187	40887.175
2389.16188	40822.075
2391.97011	40837.075
2394.77657	40714.475
2397.58125	40652.475
2400.38416	40630.175
2403.18529	40566.875
2405.98466	40570.475
2408.78226	40456.175
2411.57809	40423.575
2414.37216	40381.275
2417.16446	40397.275
2419.955	40350.675
2422.74378	40334.675
2425.5308	40245.875
2428.31606	40195.075
2431.09956	40239.175
2433.88131	40194.775
2436.6613	40196.975
2439.43954	40164.175
2442.21603	40128.975
2444.99077	40094.575
2447.76377	40134.175
2450.53501	40151.875
2453.30451	40143.575
2456.07226	40100.675
2458.83827	40088.175
2461.60254	40042.875
2464.36507	40040.875
2467.12586	40077.075
2469.88492	40035.375
2472.64224	40036.475
2475.39782	40064.575
2478.15167	40137.975
2480.90379	40082.475
2483.65417	40125.175
2486.40283	40101.775
2489.14976	40126.975
2491.89497	40109.675
2494.63845	40158.775
2497.3802	40160.975
2500.12024	40167.475
2502.85855	40158.575
2505.59514	40174.875
2508.33002	40178.075
2511.06318	40133.975
2513.79462	40075.775
2516.52435	40064.975
2519.25237	40107.875
2521.97867	39993.575
2524.70327	39993.075
2527.42616	39976.375
2530.14734	39967.775
2532.86681	39893.875
2535.58458	39904.375
2538.30065	39825.075
2541.01501	39883.875
2543.72768	39801.075
2546.43864	39803.875
2549.14791	39767.975
2551.85548	39716.875
2554.56136	39692.075
2557.26554	39708.675
2559.96803	39652.575
2562.66883	39641.075
2565.36794	39669.075
2568.06536	39699.875
2570.7611	39611.575
2573.45514	39545.975
2576.14751	39595.675
2578.83819	39531.775
2581.52719	39544.175
2584.21451	39475.975
2586.90015	39492.175
2589.58411	39430.475
2592.2664	39358.875
2594.94701	39321.775
2597.62594	39336.375
2600.30321	39260.875
2602.9788	39284.575
2605.65273	39227.375
2608.32498	39231.575
2610.99557	39162.975
2613.66449	39229.475
2616.33175	39200.075
2618.99734	39170.075
2621.66128	39119.875
2624.32355	39138.675
2626.98416	39099.675
2629.64311	39045.575
2632.30041	39035.075
2634.95605	38977.475
2637.61004	39030.275
2640.26238	38965.775
2642.91306	38937.175
2645.56209	38921.275
2648.20948	38985.275
2650.85521	38898.375
2653.4993	38901.975
2656.14175	38899.175
2658.78255	38971.175
2661.42171	38939.675
2664.05923	39022.875
2666.6951	39012.775
2669.32934	39030.475
2671.96194	39049.675
2674.59291	39090.875
2677.22224	39074.875
2679.84993	39060.275
2682.476	39010.875
2685.10043	39018.475
2687.72324	38988.375
2690.34441	39006.275
2692.96396	39038.075
2695.58188	39053.675
2698.19818	39002.875
2700.81285	39023.175
2703.4259	39025.975
2706.03733	39140.875
2708.64714	39170.175
2711.25533	39220.875
2713.86191	39243.675
2716.46687	39307.875
2719.07021	39266.675
2721.67194	39288.975
2724.27206	39234.675
2726.87057	39258.675
2729.46747	39330.275
2732.06276	39382.875
2734.65644	39320.975
2737.24852	39385.575
2739.83899	39320.775
2742.42786	39309.075
2745.01513	39249.075
2747.60079	39258.175
2750.18486	39201.575
2752.76733	39281.775
2755.3482	39289.275
2757.92747	39301.375
2760.50515	39253.575
2763.08123	39229.675
2765.65573	39205.575
2768.22863	39178.275
2770.79994	39079.875
2773.36967	39129.975
2775.9378	39071.675
2778.50435	39030.175
2781.06932	39042.275
2783.6327	39015.575
2786.1945	39078.675
2788.75471	38944.475
2791.31335	38887.775
2793.87041	38884.875
2796.42589	38791.075
2798.97979	38777.875
2801.53212	38707.875
2804.08288	38657.375
2806.63206	38603.975
2809.17967	38505.875
2811.72571	38409.775
2814.27018	38430.475
2816.81308	38348.875
2819.35442	38293.075
2821.89419	38234.875
2824.43239	38309.975
2826.96904	38214.575
2829.50412	38228.075
2832.03763	38114.675
2834.56959	38127.975
2837.1	38046.175
2839.62884	38046.175
2842.15613	37973.175
2844.68186	37979.475
2847.20604	37890.475
2849.72867	37909.175
2852.24974	37829.775
2854.76927	37852.675
2857.28724	37803.575
2859.80367	37740.975
2862.31855	37706.675
2864.83189	37717.975
2867.34368	37639.475
2869.85393	37690.275
2872.36264	37590.475
2874.8698	37629.175
2877.37543	37638.375
2879.87952	37662.375
2882.38207	37653.175
2884.88308	37678.975
2887.38256	37718.075
2889.88051	37729.975
2892.37692	37721.475
2894.8718	37692.575
2897.36515	37723.475
2899.85698	37751.575
2902.34727	37862.775
2904.83604	37924.675
2907.32328	37908.075
2909.809	37917.975
2912.29319	37999.275
2914.77587	37967.175
2917.25702	37974.875
2919.73665	37894.675
2922.21476	37982.375
2924.69136	37891.375
2927.16644	37886.975
2929.64	37832.875
2932.11205	37782.575
2934.58258	37685.475
2937.05161	37803.275
2939.51912	37878.275
2941.98513	37874.275
2944.44962	37714.075
2946.91261	37586.475
2949.37409	37736.275
2951.83407	37738.175
2954.29254	37755.075
2956.74951	37656.975
2959.20498	37661.075
2961.65895	37606.375
2964.11142	37710.875
2966.56239	37651.775
2969.01186	37613.175
2971.45984	37532.775
2973.90632	37517.575
2976.35131	37414.875
2978.7948	37401.675
2981.23681	37351.375
2983.67732	37383.675
2986.11635	37292.575
2988.55388	37163.075
2990.98993	37119.575
2993.4245	37049.475
2995.85758	36992.675
2998.28917	36918.775
3000.71928	36897.075
3003.14791	36839.875
3005.57506	36786.775
3008.00073	36694.975
3010.42493	36744.575
3012.84764	36699.175
3015.26888	36748.075
3017.68865	36643.575
3020.10694	36599.975
3022.52376	36490.475
3024.9391	36476.675
3027.35298	36409.475
3029.76539	36428.975
3032.17632	36349.975
3034.5858	36335.475
3036.9938	36315.575
3039.40034	36287.475
3041.80542	36228.175
3044.20903	36088.975
3046.61118	36123.275
3049.01187	36023.775
3051.4111	36041.075
3053.80888	35907.175
3056.20519	35900.475
3058.60005	35806.875
3060.99345	35776.775
3063.3854	35762.375
3065.7759	35610.675
3068.16494	35558.575
3070.55254	35504.175
3072.93868	35497.075
3075.32338	35377.275
3077.70662	35308.375
3080.08842	35204.775
3082.46878	35269.075
3084.84769	35225.275
3087.22515	35170.875
3089.60118	35188.175
3091.97576	35206.375
3094.3489	35152.575
3096.72061	35157.075
3099.09087	35151.675
3101.4597	35088.275
3103.82709	35066.675
3106.19305	35020.075
3108.55757	34973.075
3110.92066	34922.775
3113.28232	34817.775
3115.64255	34778.875
3118.00134	34712.175
3120.35871	34705.975
3122.71466	34641.275
3125.06917	34641.175
3127.42226	34557.875
3129.77393	34607.475
3132.12417	34520.575
3134.47299	34516.775
3136.82039	34502.775
3139.16636	34505.375
3141.51092	34493.075
3143.85406	34495.275
3146.19579	34513.775
3148.53609	34525.775
3150.87499	34498.175
3153.21246	34525.575
3155.54853	34552.075
3157.88318	34433.375
3160.21642	34501.575
3162.54826	34440.275
3164.87868	34409.575
3167.2077	34337.975
3169.5353	34367.375
3171.86151	34345.375
3174.18631	34263.675
3176.5097	34236.775
3178.83169	34198.775
3181.15228	34196.675
3183.47147	34159.275
3185.78926	34184.275
3188.10565	34139.775
3190.42065	34070.875
3192.73424	34077.875
3195.04645	34067.775
3197.35725	34124.375
3199.66667	34076.975
3201.97469	34106.075
3204.28132	34055.175
3206.58656	34097.975
3208.8904	34075.575
3211.19287	34089.275
3213.49394	34036.475
3215.79363	34027.275
3218.09193	34118.375
3220.38884	34089.875
3222.68438	34111.275
3224.97853	34041.175
3227.2713	34079.975
3229.56269	34025.975
3231.8527	33980.275
3234.14133	33885.575
3236.42858	33846.675
3238.71446	33799.575
3240.99896	33770.875
3243.28209	33748.975
3245.56384	33755.275
3247.84423	33754.875
3250.12324	33681.075
3252.40088	33638.275
3254.67715	33607.175
3256.95205	33603.075
3259.22558	33588.175
3261.49775	33496.375
3263.76855	33498.075
3266.03799	33382.075
3268.30606	33414.575
3270.57277	33324.275
3272.83812	33302.575
3275.10211	33268.075
3277.36474	33290.775
3279.62601	33301.475
3281.88593	33274.375
3284.14448	33238.075
3286.40168	33222.875
3288.65753	33174.275
3290.91202	33150.075
3293.16516	33046.875
3295.41695	32986.275
3297.66738	32776.475
3299.91647	32655.075
3302.16421	32451.075
3304.4106	32398.375
3306.65564	32205.975
3308.89933	32025.575
3311.14169	31793.575
3313.38269	31536.675
3315.62236	31406.075
3317.86068	31138.275
3320.09766	30846.275
3322.3333	30616.975
3324.5676	30597.375
3326.80056	30190.175
3329.03219	30068.775
3331.26248	7.075
3333.49143	0.375
3335.71905	-1.125
