Data from AgNP_FTO_APTES_CRN_200uM_R6G_10uM_NaF_0.1M_Addition_RamanShift__5__19-22-48-163.txt Node

Date: Wed Dec 15 19:22:48 GMT 2021
User: TCL
Spectrometer: QEP01345
Trigger mode: 4
Integration Time (sec): 7.000000E0
Scans to average: 10
Electric dark correction enabled: true
Nonlinearity correction enabled: false
Boxcar width: 0
XAxis mode: Raman Shifts
Number of Pixels in Spectrum: 1044
>>>>>Begin Spectral Data<<<<<
46.04893	1.0125
50.45542	-1.7875
54.85868	-1.9875
59.25871	-0.4875
63.6555	58.2125
68.04907	64.7125
72.43941	63.9125
76.82654	68.0125
81.21044	72.4125
85.59113	73.7125
89.96862	81.2125
94.34289	77.1125
98.71396	85.3125
103.08183	89.6125
107.4465	91.5125
111.80798	89.9125
116.16626	94.3125
120.52136	98.8125
124.87327	97.2125
129.222	99.7125
133.56755	103.6125
137.90993	112.0125
142.24913	120.7125
146.58517	130.9125
150.91804	154.9125
155.24774	176.8125
159.57429	217.8125
163.89768	278.8125
168.21792	355.2125
172.53501	481.0125
176.84895	673.5125
181.15975	943.4125
185.46741	1302.0125
189.77193	1802.4125
194.07331	2401.8125
198.37157	3103.1125
202.6667	3833.6125
206.9587	4537.3125
211.24758	5246.2125
215.53334	5955.3125
219.81599	6679.2125
224.09553	7505.7125
228.37195	8385.4125
232.64527	9372.2125
236.91549	10412.2125
241.18261	11471.0125
245.44663	12503.7125
249.70755	13456.1125
253.96539	14251.8125
258.22014	14960.2125
262.4718	15539.7125
266.72039	15882.2125
270.96589	16079.8125
275.20832	16091.2125
279.44768	15997.6125
283.68397	15848.2125
287.91719	15691.1125
292.14735	15602.8125
296.37445	15559.0125
300.59849	15548.8125
304.81948	15487.2125
309.03742	15447.6125
313.25231	15349.6125
317.46415	15109.4125
321.67296	14816.9125
325.87872	14578.4125
330.08145	14466.7125
334.28114	14460.9125
338.47781	14537.0125
342.67145	14677.3125
346.86207	14871.4125
351.04966	15098.1125
355.23424	15285.6125
359.4158	15494.3125
363.59435	15612.4125
367.76989	15736.6125
371.94243	15790.8125
376.11196	15821.3125
380.27849	15940.2125
384.44203	15981.8125
388.60257	16152.3125
392.76012	16293.5125
396.91468	16507.8125
401.06626	16722.3125
405.21485	16883.3125
409.36047	16909.9125
413.50311	16758.2125
417.64277	16684.1125
421.77947	16659.0125
425.9132	16763.7125
430.04396	16837.9125
434.17176	16922.2125
438.2966	17022.1125
442.41849	17214.1125
446.53742	17511.7125
450.6534	17897.4125
454.76644	18159.3125
458.87653	18237.5125
462.98368	18215.2125
467.08789	18083.4125
471.18916	17999.5125
475.2875	17961.8125
479.38291	17884.7125
483.4754	17826.7125
487.56496	17643.1125
491.6516	17379.3125
495.73531	17180.5125
499.81612	17084.9125
503.89401	17176.3125
507.96899	17249.9125
512.04106	17271.5125
516.11023	17212.6125
520.1765	17114.1125
524.23987	17068.2125
528.30034	16963.0125
532.35792	16821.5125
536.41261	16644.5125
540.46441	16575.5125
544.51333	16571.6125
548.55936	16726.8125
552.60252	16983.1125
556.64279	17324.6125
560.6802	17517.8125
564.71473	17624.1125
568.7464	17759.8125
572.7752	18108.6125
576.80114	18499.6125
580.82422	18946.3125
584.84444	19376.1125
588.86181	19912.2125
592.87633	20208.5125
596.888	20131.2125
600.89682	19630.0125
604.9028	19517.9125
608.90594	20229.1125
612.90624	21012.0125
616.90371	20005.6125
620.89834	17779.2125
624.89015	16775.0125
628.87913	16718.0125
632.86528	16781.4125
636.84862	16813.1125
640.82913	16683.8125
644.80683	16408.4125
648.78172	16263.9125
652.75379	16223.9125
656.72306	16303.7125
660.68952	16404.4125
664.65319	16358.6125
668.61405	16216.7125
672.57211	16183.1125
676.52738	16284.1125
680.47986	16324.5125
684.42955	16241.6125
688.37646	16202.6125
692.32058	16243.3125
696.26192	16374.2125
700.20048	16543.6125
704.13626	16681.7125
708.06928	16699.9125
711.99952	16693.9125
715.927	16715.4125
719.85171	16718.5125
723.77365	16638.2125
727.69284	16449.8125
731.60928	16267.5125
735.52295	16233.0125
739.43388	16225.4125
743.34206	16273.4125
747.24749	16349.7125
751.15017	16428.1125
755.05012	16668.0125
758.94733	16998.8125
762.8418	17569.3125
766.73354	18444.7125
770.62254	19271.2125
774.50882	19383.3125
778.39237	18735.3125
782.27321	17749.6125
786.15132	16967.2125
790.02671	16497.1125
793.89938	16296.8125
797.76935	16175.6125
801.6366	16183.5125
805.50115	16136.2125
809.36299	16096.7125
813.22213	16033.1125
817.07857	15971.2125
820.93231	15963.0125
824.78336	15903.3125
828.63172	15864.9125
832.47738	15908.0125
836.32036	15914.0125
840.16066	15940.1125
843.99827	15959.2125
847.8332	15902.8125
851.66546	15844.8125
855.49504	15824.7125
859.32195	15814.5125
863.1462	15821.9125
866.96777	15771.9125
870.78668	15744.3125
874.60293	15764.1125
878.41652	15780.3125
882.22745	15827.7125
886.03573	15845.0125
889.84136	15880.6125
893.64433	15834.6125
897.44466	15794.8125
901.24235	15719.8125
905.0374	15715.6125
908.8298	15720.0125
912.61957	15732.1125
916.40671	15852.6125
920.19121	15993.1125
923.97308	16102.3125
927.75233	16111.7125
931.52895	16043.5125
935.30295	15845.3125
939.07433	15647.9125
942.84309	15466.9125
946.60924	15337.2125
950.37278	15287.3125
954.13371	15273.2125
957.89203	15251.1125
961.64774	15265.5125
965.40086	15259.5125
969.15137	15204.7125
972.89929	15149.1125
976.64461	15086.1125
980.38733	15059.2125
984.12747	15080.6125
987.86502	15164.9125
991.59999	15272.9125
995.33237	15382.7125
999.06217	15591.1125
1002.78939	15843.2125
1006.51404	16047.1125
1010.23611	16225.4125
1013.95561	16362.8125
1017.67255	16380.0125
1021.38692	16262.1125
1025.09872	16096.3125
1028.80796	16020.3125
1032.51465	16147.9125
1036.21877	16345.2125
1039.92035	16478.8125
1043.61937	16440.2125
1047.31584	16380.7125
1051.00976	16326.8125
1054.70114	16349.6125
1058.38998	16525.5125
1062.07627	16776.5125
1065.76003	17197.6125
1069.44126	17641.0125
1073.11995	18009.9125
1076.79611	18192.0125
1080.46974	18021.6125
1084.14085	17710.5125
1087.80943	17465.2125
1091.47549	17341.5125
1095.13903	17257.2125
1098.80005	17041.2125
1102.45857	16764.4125
1106.11456	16476.5125
1109.76805	16309.4125
1113.41903	16302.4125
1117.06751	16337.2125
1120.71348	16465.9125
1124.35696	16640.3125
1127.99793	16842.9125
1131.63641	17002.8125
1135.2724	16942.7125
1138.90589	16850.8125
1142.5369	16843.6125
1146.16542	16868.6125
1149.79145	16935.3125
1153.415	17058.8125
1157.03607	17246.3125
1160.65467	17589.3125
1164.27079	18205.9125
1167.88443	18964.6125
1171.49561	19901.1125
1175.10432	20976.4125
1178.71056	22376.0125
1182.31434	23613.4125
1185.91565	24135.3125
1189.51451	23902.9125
1193.11091	23287.0125
1196.70485	22481.7125
1200.29634	21727.3125
1203.88538	21220.5125
1207.47197	20942.4125
1211.05612	20726.5125
1214.63782	20388.5125
1218.21708	19972.7125
1221.79391	19505.2125
1225.36829	19233.9125
1228.94024	19049.4125
1232.50976	18830.0125
1236.07685	18623.5125
1239.6415	18550.7125
1243.20374	18549.0125
1246.76355	18637.2125
1250.32093	18838.5125
1253.8759	19180.4125
1257.42845	19574.3125
1260.97859	19973.1125
1264.52631	20376.3125
1268.07163	20789.3125
1271.61453	21276.9125
1275.15503	21768.5125
1278.69312	22321.0125
1282.22882	22847.8125
1285.76211	23422.6125
1289.29301	24207.6125
1292.82151	25143.9125
1296.34761	26284.6125
1299.87133	27564.5125
1303.39266	28872.9125
1306.9116	30063.1125
1310.42815	30995.8125
1313.94233	31515.0125
1317.45412	31377.9125
1320.96354	30882.2125
1324.47058	30506.2125
1327.97525	30125.5125
1331.47754	29862.0125
1334.97747	29688.8125
1338.47502	29486.0125
1341.97022	29218.5125
1345.46305	28986.9125
1348.95352	28756.4125
1352.44163	28813.7125
1355.92738	29288.1125
1359.41078	30240.5125
1362.89183	31006.5125
1366.37053	30583.1125
1369.84688	28714.6125
1373.32088	26243.0125
1376.79254	24463.3125
1380.26186	23715.7125
1383.72883	23566.2125
1387.19347	23476.2125
1390.65578	23234.2125
1394.11575	23193.3125
1397.57339	23425.4125
1401.0287	23726.9125
1404.48168	23918.4125
1407.93234	23838.7125
1411.38068	23425.3125
1414.82669	22741.2125
1418.27039	21900.6125
1421.71177	21113.5125
1425.15083	20416.8125
1428.58758	20030.6125
1432.02203	20115.2125
1435.45416	20486.2125
1438.88399	20944.6125
1442.31151	21311.1125
1445.73673	21535.2125
1449.15965	21763.1125
1452.58027	21923.6125
1455.9986	21987.9125
1459.41463	22131.2125
1462.82837	22469.4125
1466.23982	22791.8125
1469.64898	23140.2125
1473.05586	23392.5125
1476.46045	23439.0125
1479.86276	23396.9125
1483.26279	23248.2125
1486.66054	23218.1125
1490.05602	23323.0125
1493.44922	23537.7125
1496.84016	23819.0125
1500.22882	24190.3125
1503.61521	24733.9125
1506.99934	25410.5125
1510.38121	25851.5125
1513.76081	25957.7125
1517.13816	25460.1125
1520.51324	24751.5125
1523.88607	24209.5125
1527.25665	23981.1125
1530.62498	23889.8125
1533.99105	23815.3125
1537.35488	23573.2125
1540.71647	23247.6125
1544.07581	22753.1125
1547.4329	22256.2125
1550.78776	21817.6125
1554.14038	21482.1125
1557.49077	21290.8125
1560.83892	21254.1125
1564.18484	21339.4125
1567.52853	21567.5125
1570.86999	22005.5125
1574.20922	22665.9125
1577.54624	23418.4125
1580.88103	23831.0125
1584.2136	23892.3125
1587.54395	23901.1125
1590.87208	24219.4125
1594.19801	24908.6125
1597.52172	25731.9125
1600.84321	26014.6125
1604.16251	25194.0125
1607.47959	23626.5125
1610.79447	21969.2125
1614.10715	20395.8125
1617.41763	19092.5125
1620.7259	18248.3125
1624.03199	17783.3125
1627.33587	17742.6125
1630.63757	18045.9125
1633.93707	18848.6125
1637.23439	20267.6125
1640.52951	22360.1125
1643.82246	24855.2125
1647.11321	26947.3125
1650.40179	27467.0125
1653.68819	25997.2125
1656.97241	23329.1125
1660.25446	20557.6125
1663.53433	18466.6125
1666.81203	17060.3125
1670.08756	16154.6125
1673.36092	15584.2125
1676.63211	15170.2125
1679.90115	14923.1125
1683.16801	14679.1125
1686.43272	14555.2125
1689.69527	14437.7125
1692.95567	14359.2125
1696.2139	14328.1125
1699.46999	14313.0125
1702.72392	14251.3125
1705.97571	14230.0125
1709.22535	14193.1125
1712.47284	14120.3125
1715.71819	14141.5125
1718.96139	14078.1125
1722.20246	14084.9125
1725.44139	14010.2125
1728.67818	13947.8125
1731.91284	13895.9125
1735.14537	13837.9125
1738.37576	13775.9125
1741.60403	13757.7125
1744.83017	13747.7125
1748.05418	13710.8125
1751.27607	13712.2125
1754.49584	13687.8125
1757.71349	13717.8125
1760.92903	13696.3125
1764.14244	13684.1125
1767.35375	13665.5125
1770.56294	13642.2125
1773.77002	13628.5125
1776.97499	13595.0125
1780.17785	13560.6125
1783.37861	13562.1125
1786.57727	13517.5125
1789.77382	13477.1125
1792.96828	13453.8125
1796.16064	13428.2125
1799.3509	13405.4125
1802.53907	13377.0125
1805.72514	13353.2125
1808.90913	13328.9125
1812.09102	13305.4125
1815.27083	13262.7125
1818.44856	13242.8125
1821.6242	13243.5125
1824.79776	13239.3125
1827.96924	13241.7125
1831.13864	13221.3125
1834.30597	13219.0125
1837.47122	13194.6125
1840.6344	13196.5125
1843.7955	13217.9125
1846.95454	13208.5125
1850.11151	13188.5125
1853.26642	13171.2125
1856.41926	13169.4125
1859.57004	13155.7125
1862.71876	13166.8125
1865.86542	13148.1125
1869.01003	13147.4125
1872.15258	13133.3125
1875.29308	13100.3125
1878.43152	13087.9125
1881.56792	13061.4125
1884.70227	13046.9125
1887.83457	13060.9125
1890.96482	13039.8125
1894.09304	13010.1125
1897.21921	13001.8125
1900.34335	12992.6125
1903.46544	12967.2125
1906.58551	12998.6125
1909.70353	12918.5125
1912.81953	12923.1125
1915.93349	12891.3125
1919.04543	12882.5125
1922.15534	12840.9125
1925.26322	12833.0125
1928.36908	12829.7125
1931.47292	12827.3125
1934.57473	12781.0125
1937.67453	12750.3125
1940.77232	12703.0125
1943.86808	12709.2125
1946.96184	12676.5125
1950.05358	12622.6125
1953.14331	12596.0125
1956.23103	12575.7125
1959.31675	12550.7125
1962.40046	12494.8125
1965.48217	12463.0125
1968.56188	12441.1125
1971.63959	12394.7125
1974.7153	12376.4125
1977.78901	12354.7125
1980.86073	12285.8125
1983.93046	12254.2125
1986.99819	12231.8125
1990.06394	12208.0125
1993.1277	12154.8125
1996.18947	12123.5125
1999.24925	12099.1125
2002.30706	12098.4125
2005.36288	12039.1125
2008.41672	12000.9125
2011.46859	11971.6125
2014.51848	11978.1125
2017.56639	11905.3125
2020.61233	11909.0125
2023.6563	11872.9125
2026.6983	11843.8125
2029.73833	11819.5125
2032.7764	11800.9125
2035.8125	11770.9125
2038.84664	11739.7125
2041.87881	11752.2125
2044.90903	11724.2125
2047.93729	11696.8125
2050.96359	11682.3125
2053.98794	11665.3125
2057.01034	11651.6125
2060.03078	11642.6125
2063.04927	11625.7125
2066.06582	11625.2125
2069.08042	11654.9125
2072.09307	11617.1125
2075.10378	11594.5125
2078.11255	11607.3125
2081.11938	11618.2125
2084.12426	11605.3125
2087.12722	11611.3125
2090.12824	11594.6125
2093.12732	11602.6125
2096.12447	11629.0125
2099.11969	11629.2125
2102.11299	11632.1125
2105.10435	11623.7125
2108.09379	11619.2125
2111.08131	11623.8125
2114.0669	11640.9125
2117.05057	11675.6125
2120.03233	11646.3125
2123.01216	11668.3125
2125.99008	11683.9125
2128.96609	11698.9125
2131.94018	11692.7125
2134.91236	11697.2125
2137.88263	11708.7125
2140.851	11712.6125
2143.81746	11751.4125
2146.78201	11718.0125
2149.74466	11741.6125
2152.7054	11741.7125
2155.66425	11727.6125
2158.6212	11770.5125
2161.57625	11752.1125
2164.52941	11738.7125
2167.48067	11713.2125
2170.43004	11731.9125
2173.37752	11730.6125
2176.32311	11756.5125
2179.26681	11746.3125
2182.20863	11734.8125
2185.14856	11724.9125
2188.08661	11718.3125
2191.02278	11712.1125
2193.95707	11711.4125
2196.88948	11710.3125
2199.82001	11695.3125
2202.74867	11700.1125
2205.67545	11707.8125
2208.60037	11697.9125
2211.52341	11685.2125
2214.44458	11654.1125
2217.36388	11603.7125
2220.28132	11605.2125
2223.1969	11571.9125
2226.11061	11567.6125
2229.02246	11532.1125
2231.93245	11536.9125
2234.84058	11530.1125
2237.74686	11511.6125
2240.65128	11515.4125
2243.55385	11462.6125
2246.45456	11466.5125
2249.35343	11438.7125
2252.25044	11448.5125
2255.14561	11422.7125
2258.03893	11427.1125
2260.93041	11395.1125
2263.82004	11377.7125
2266.70783	11330.4125
2269.59378	11301.4125
2272.4779	11291.5125
2275.36017	11255.8125
2278.24061	11264.0125
2281.11922	11220.5125
2283.996	11179.0125
2286.87094	11179.8125
2289.74405	11177.4125
2292.61534	11151.1125
2295.4848	11135.1125
2298.35243	11155.2125
2301.21824	11157.3125
2304.08223	11132.8125
2306.94439	11102.1125
2309.80474	11137.2125
2312.66327	11121.5125
2315.51999	11117.8125
2318.37489	11105.2125
2321.22797	11081.3125
2324.07925	11082.2125
2326.92871	11101.2125
2329.77637	11081.1125
2332.62222	11057.7125
2335.46626	11037.6125
2338.3085	11043.9125
2341.14893	11019.5125
2343.98756	10997.7125
2346.8244	11009.7125
2349.65943	10983.3125
2352.49267	10974.8125
2355.32411	10993.6125
2358.15376	10968.2125
2360.98161	10958.1125
2363.80768	10975.8125
2366.63195	10959.6125
2369.45444	10961.6125
2372.27514	10942.7125
2375.09405	10930.7125
2377.91118	10920.2125
2380.72652	10902.8125
2383.54009	10866.6125
2386.35187	10854.4125
2389.16188	10821.3125
2391.97011	10809.9125
2394.77657	10809.6125
2397.58125	10779.4125
2400.38416	10758.0125
2403.18529	10773.7125
2405.98466	10740.8125
2408.78226	10740.8125
2411.57809	10721.9125
2414.37216	10684.4125
2417.16446	10673.8125
2419.955	10668.0125
2422.74378	10650.1125
2425.5308	10642.2125
2428.31606	10627.1125
2431.09956	10624.4125
2433.88131	10643.8125
2436.6613	10624.9125
2439.43954	10612.7125
2442.21603	10630.2125
2444.99077	10617.8125
2447.76377	10607.9125
2450.53501	10601.6125
2453.30451	10594.2125
2456.07226	10583.1125
2458.83827	10563.0125
2461.60254	10586.5125
2464.36507	10546.6125
2467.12586	10559.1125
2469.88492	10549.4125
2472.64224	10549.2125
2475.39782	10532.3125
2478.15167	10565.5125
2480.90379	10528.7125
2483.65417	10560.6125
2486.40283	10544.0125
2489.14976	10570.2125
2491.89497	10532.9125
2494.63845	10545.4125
2497.3802	10542.2125
2500.12024	10506.3125
2502.85855	10519.7125
2505.59514	10500.5125
2508.33002	10504.0125
2511.06318	10482.9125
2513.79462	10500.6125
2516.52435	10487.2125
2519.25237	10455.6125
2521.97867	10462.1125
2524.70327	10460.6125
2527.42616	10430.9125
2530.14734	10412.0125
2532.86681	10393.3125
2535.58458	10415.7125
2538.30065	10409.8125
2541.01501	10388.6125
2543.72768	10394.7125
2546.43864	10358.3125
2549.14791	10363.7125
2551.85548	10338.1125
2554.56136	10299.9125
2557.26554	10283.9125
2559.96803	10282.7125
2562.66883	10278.6125
2565.36794	10282.6125
2568.06536	10304.1125
2570.7611	10278.8125
2573.45514	10278.5125
2576.14751	10259.3125
2578.83819	10224.3125
2581.52719	10231.3125
2584.21451	10204.1125
2586.90015	10221.5125
2589.58411	10191.3125
2592.2664	10176.2125
2594.94701	10164.7125
2597.62594	10157.9125
2600.30321	10147.1125
2602.9788	10116.9125
2605.65273	10119.9125
2608.32498	10088.1125
2610.99557	10101.1125
2613.66449	10098.9125
2616.33175	10059.9125
2618.99734	10048.3125
2621.66128	10074.4125
2624.32355	10049.9125
2626.98416	10045.1125
2629.64311	10058.6125
2632.30041	10038.2125
2634.95605	10028.6125
2637.61004	10012.9125
2640.26238	9993.0125
2642.91306	10018.5125
2645.56209	9994.2125
2648.20948	9973.5125
2650.85521	9982.4125
2653.4993	10000.5125
2656.14175	9986.3125
2658.78255	9994.8125
2661.42171	10008.0125
2664.05923	10002.1125
2666.6951	9988.5125
2669.32934	10008.0125
2671.96194	9981.1125
2674.59291	9970.6125
2677.22224	9987.7125
2679.84993	10001.5125
2682.476	9978.3125
2685.10043	9978.3125
2687.72324	9971.3125
2690.34441	9966.8125
2692.96396	9997.3125
2695.58188	9990.5125
2698.19818	9993.4125
2700.81285	10003.8125
2703.4259	10014.5125
2706.03733	10067.7125
2708.64714	10032.7125
2711.25533	10047.8125
2713.86191	10007.3125
2716.46687	10031.3125
2719.07021	10023.3125
2721.67194	10011.4125
2724.27206	10012.9125
2726.87057	10031.8125
2729.46747	10040.9125
2732.06276	10041.6125
2734.65644	10031.0125
2737.24852	10025.3125
2739.83899	9995.9125
2742.42786	10016.5125
2745.01513	9983.3125
2747.60079	9986.0125
2750.18486	9983.6125
2752.76733	9959.0125
2755.3482	10002.8125
2757.92747	9990.9125
2760.50515	9969.7125
2763.08123	9952.5125
2765.65573	9957.2125
2768.22863	9946.5125
2770.79994	9927.4125
2773.36967	9931.3125
2775.9378	9936.9125
2778.50435	9930.4125
2781.06932	9903.7125
2783.6327	9899.6125
2786.1945	9874.4125
2788.75471	9883.8125
2791.31335	9871.6125
2793.87041	9863.6125
2796.42589	9826.1125
2798.97979	9835.1125
2801.53212	9810.8125
2804.08288	9803.7125
2806.63206	9761.7125
2809.17967	9767.7125
2811.72571	9721.1125
2814.27018	9731.9125
2816.81308	9739.2125
2819.35442	9690.5125
2821.89419	9692.9125
2824.43239	9694.4125
2826.96904	9685.3125
2829.50412	9663.9125
2832.03763	9643.8125
2834.56959	9670.9125
2837.1	9665.9125
2839.62884	9672.6125
2842.15613	9659.6125
2844.68186	9717.4125
2847.20604	9691.9125
2849.72867	9703.2125
2852.24974	9684.0125
2854.76927	9699.1125
2857.28724	9687.7125
2859.80367	9665.9125
2862.31855	9652.9125
2864.83189	9613.7125
2867.34368	9647.5125
2869.85393	9619.3125
2872.36264	9616.3125
2874.8698	9626.0125
2877.37543	9612.2125
2879.87952	9631.4125
2882.38207	9637.6125
2884.88308	9627.4125
2887.38256	9619.3125
2889.88051	9632.1125
2892.37692	9616.0125
2894.8718	9626.1125
2897.36515	9624.4125
2899.85698	9641.8125
2902.34727	9650.9125
2904.83604	9664.5125
2907.32328	9684.7125
2909.809	9686.2125
2912.29319	9680.1125
2914.77587	9680.0125
2917.25702	9672.2125
2919.73665	9657.3125
2922.21476	9695.6125
2924.69136	9673.2125
2927.16644	9671.8125
2929.64	9657.2125
2932.11205	9646.0125
2934.58258	9625.0125
2937.05161	9675.6125
2939.51912	9661.1125
2941.98513	9646.2125
2944.44962	9638.0125
2946.91261	9577.1125
2949.37409	9621.6125
2951.83407	9585.6125
2954.29254	9593.5125
2956.74951	9539.5125
2959.20498	9560.1125
2961.65895	9532.9125
2964.11142	9520.8125
2966.56239	9519.5125
2969.01186	9533.6125
2971.45984	9473.2125
2973.90632	9476.9125
2976.35131	9447.3125
2978.7948	9414.0125
2981.23681	9412.0125
2983.67732	9408.3125
2986.11635	9394.7125
2988.55388	9358.9125
2990.98993	9338.5125
2993.4245	9344.3125
2995.85758	9320.0125
2998.28917	9314.0125
3000.71928	9289.6125
3003.14791	9282.4125
3005.57506	9275.2125
3008.00073	9255.3125
3010.42493	9266.0125
3012.84764	9221.2125
3015.26888	9247.6125
3017.68865	9239.2125
3020.10694	9212.0125
3022.52376	9177.9125
3024.9391	9153.0125
3027.35298	9151.9125
3029.76539	9181.3125
3032.17632	9170.7125
3034.5858	9133.6125
3036.9938	9125.6125
3039.40034	9140.9125
3041.80542	9116.6125
3044.20903	9104.9125
3046.61118	9125.6125
3049.01187	9089.8125
3051.4111	9108.4125
3053.80888	9074.7125
3056.20519	9083.5125
3058.60005	9047.0125
3060.99345	9031.8125
3063.3854	9023.5125
3065.7759	9005.9125
3068.16494	8995.9125
3070.55254	8975.7125
3072.93868	8952.8125
3075.32338	8927.9125
3077.70662	8938.2125
3080.08842	8876.4125
3082.46878	8915.7125
3084.84769	8902.3125
3087.22515	8898.6125
3089.60118	8918.8125
3091.97576	8908.2125
3094.3489	8935.9125
3096.72061	8900.7125
3099.09087	8927.4125
3101.4597	8910.3125
3103.82709	8906.2125
3106.19305	8892.4125
3108.55757	8904.1125
3110.92066	8871.2125
3113.28232	8844.2125
3115.64255	8850.4125
3118.00134	8809.8125
3120.35871	8828.1125
3122.71466	8823.6125
3125.06917	8807.6125
3127.42226	8792.3125
3129.77393	8794.7125
3132.12417	8798.3125
3134.47299	8814.5125
3136.82039	8815.7125
3139.16636	8832.2125
3141.51092	8829.0125
3143.85406	8806.0125
3146.19579	8837.9125
3148.53609	8824.5125
3150.87499	8855.8125
3153.21246	8850.2125
3155.54853	8860.0125
3157.88318	8860.7125
3160.21642	8865.4125
3162.54826	8853.9125
3164.87868	8870.9125
3167.2077	8868.5125
3169.5353	8871.6125
3171.86151	8864.1125
3174.18631	8848.4125
3176.5097	8853.3125
3178.83169	8852.6125
3181.15228	8865.6125
3183.47147	8821.8125
3185.78926	8823.8125
3188.10565	8813.2125
3190.42065	8842.6125
3192.73424	8852.1125
3195.04645	8823.0125
3197.35725	8844.3125
3199.66667	8811.9125
3201.97469	8852.0125
3204.28132	8860.0125
3206.58656	8853.0125
3208.8904	8839.7125
3211.19287	8865.4125
3213.49394	8871.8125
3215.79363	8851.5125
3218.09193	8855.4125
3220.38884	8864.2125
3222.68438	8878.4125
3224.97853	8865.6125
3227.2713	8861.1125
3229.56269	8840.4125
3231.8527	8846.2125
3234.14133	8828.4125
3236.42858	8813.2125
3238.71446	8794.4125
3240.99896	8786.0125
3243.28209	8803.9125
3245.56384	8814.9125
3247.84423	8813.5125
3250.12324	8794.7125
3252.40088	8795.8125
3254.67715	8769.7125
3256.95205	8774.1125
3259.22558	8785.8125
3261.49775	8756.3125
3263.76855	8768.6125
3266.03799	8715.5125
3268.30606	8708.2125
3270.57277	8708.6125
3272.83812	8690.8125
3275.10211	8653.9125
3277.36474	8678.3125
3279.62601	8658.2125
3281.88593	8647.3125
3284.14448	8671.2125
3286.40168	8673.1125
3288.65753	8657.4125
3290.91202	8656.5125
3293.16516	8611.4125
3295.41695	8580.9125
3297.66738	8527.2125
3299.91647	8516.3125
3302.16421	8444.2125
3304.4106	8431.5125
3306.65564	8385.9125
3308.89933	8361.1125
3311.14169	8274.4125
3313.38269	8231.4125
3315.62236	8194.7125
3317.86068	8122.9125
3320.09766	8016.6125
3322.3333	7960.7125
3324.5676	7984.2125
3326.80056	7853.3125
3329.03219	7816.3125
3331.26248	3.6125
3333.49143	-0.7875
3335.71905	0.7125
