Data from AgNP_FTO_APTES_CRN_2uM_R6G_10uM_NaF_0.1M_Addition_RamanShift__12__14-48-59-339.txt Node

Date: Wed Dec 15 14:48:59 GMT 2021
User: TCL
Spectrometer: QEP01345
Trigger mode: 4
Integration Time (sec): 7.000000E0
Scans to average: 10
Electric dark correction enabled: true
Nonlinearity correction enabled: false
Boxcar width: 0
XAxis mode: Raman Shifts
Number of Pixels in Spectrum: 1044
>>>>>Begin Spectral Data<<<<<
46.04893	-0.375
50.45542	-2.775
54.85868	-0.175
59.25871	-1.575
63.6555	141.625
68.04907	154.525
72.43941	156.025
76.82654	164.625
81.21044	171.125
85.59113	174.525
89.96862	186.125
94.34289	187.025
98.71396	196.625
103.08183	205.925
107.4465	210.125
111.80798	208.725
116.16626	220.025
120.52136	226.825
124.87327	238.025
129.222	248.925
133.56755	263.425
137.90993	282.625
142.24913	309.525
146.58517	343.925
150.91804	404.525
155.24774	477.725
159.57429	584.925
163.89768	751.025
168.21792	992.125
172.53501	1348.525
176.84895	1873.825
181.15975	2617.525
185.46741	3658.025
189.77193	5038.625
194.07331	6747.025
198.37157	8689.025
202.6667	10737.225
206.9587	12739.825
211.24758	14693.525
215.53334	16660.125
219.81599	18702.825
224.09553	20986.525
228.37195	23443.025
232.64527	26251.025
236.91549	29144.425
241.18261	32179.225
245.44663	35098.825
249.70755	37659.725
253.96539	39943.825
258.22014	41858.925
262.4718	43429.525
266.72039	44443.625
270.96589	44953.625
275.20832	45093.325
279.44768	44878.125
283.68397	44503.225
287.91719	44161.025
292.14735	43898.825
296.37445	43769.425
300.59849	43742.725
304.81948	43773.425
309.03742	43777.525
313.25231	43570.225
317.46415	43091.925
321.67296	42518.225
325.87872	41955.225
330.08145	41696.325
334.28114	41773.625
338.47781	42040.025
342.67145	42535.925
346.86207	42980.725
351.04966	43664.325
355.23424	44220.325
359.4158	44833.725
363.59435	45368.825
367.76989	45761.825
371.94243	45971.225
376.11196	46067.125
380.27849	46111.325
384.44203	46290.125
388.60257	46573.025
392.76012	47093.225
396.91468	47804.625
401.06626	48612.925
405.21485	49055.725
409.36047	49126.725
413.50311	49006.825
417.64277	49039.325
421.77947	49491.625
425.9132	49927.425
430.04396	50245.625
434.17176	50420.925
438.2966	50361.225
442.41849	50653.925
446.53742	51526.925
450.6534	52543.225
454.76644	53314.325
458.87653	53649.925
462.98368	53650.725
467.08789	53207.425
471.18916	52569.725
475.2875	51863.925
479.38291	51418.325
483.4754	51056.525
487.56496	50682.125
491.6516	50248.225
495.73531	49851.825
499.81612	49777.525
503.89401	50146.825
507.96899	50623.725
512.04106	50955.825
516.11023	50770.425
520.1765	50255.125
524.23987	49640.025
528.30034	49089.725
532.35792	48499.625
536.41261	48043.025
540.46441	47765.625
544.51333	47824.725
548.55936	48295.525
552.60252	49073.225
556.64279	49957.125
560.6802	50586.625
564.71473	51053.625
568.7464	51928.425
572.7752	53452.625
576.80114	55542.325
580.82422	57966.425
584.84444	60509.725
588.86181	63081.525
592.87633	64930.125
596.888	63900.725
600.89682	60941.925
604.9028	59713.525
608.90594	61123.525
612.90624	62328.625
616.90371	58652.825
620.89834	52731.725
624.89015	50325.825
628.87913	50427.325
632.86528	50844.725
636.84862	50728.025
640.82913	49920.625
644.80683	48835.225
648.78172	48199.025
652.75379	48216.825
656.72306	48716.825
660.68952	49153.025
664.65319	48925.725
668.61405	48402.125
672.57211	48366.525
676.52738	48485.625
680.47986	48483.725
684.42955	48190.225
688.37646	48044.725
692.32058	48373.825
696.26192	48932.825
700.20048	49583.425
704.13626	50030.525
708.06928	50279.125
711.99952	50249.825
715.927	50133.125
719.85171	50175.625
723.77365	49835.425
727.69284	49085.525
731.60928	48389.025
735.52295	47985.425
739.43388	47821.825
743.34206	47974.225
747.24749	48336.325
751.15017	48839.625
755.05012	49663.425
758.94733	50898.825
762.8418	52768.725
766.73354	55377.025
770.62254	57386.125
774.50882	57125.925
778.39237	55008.525
782.27321	52455.925
786.15132	50521.325
790.02671	49229.725
793.89938	48561.525
797.76935	48160.425
801.6366	48068.825
805.50115	48001.025
809.36299	47826.625
813.22213	47514.625
817.07857	47234.325
820.93231	47044.425
824.78336	46835.725
828.63172	46710.025
832.47738	46689.425
836.32036	46634.025
840.16066	46638.125
843.99827	46624.225
847.8332	46701.025
851.66546	46805.625
855.49504	46957.625
859.32195	46978.825
863.1462	46875.425
866.96777	46788.125
870.78668	46778.325
874.60293	46846.425
878.41652	46774.325
882.22745	46969.025
886.03573	47078.725
889.84136	47145.525
893.64433	47052.425
897.44466	46922.425
901.24235	46909.325
905.0374	46833.625
908.8298	46889.025
912.61957	47034.025
916.40671	47469.625
920.19121	48144.125
923.97308	48637.925
927.75233	48461.925
931.52895	47827.625
935.30295	47070.625
939.07433	46340.125
942.84309	45927.525
946.60924	45699.925
950.37278	45622.125
954.13371	45624.325
957.89203	45671.425
961.64774	45658.325
965.40086	45666.625
969.15137	45569.625
972.89929	45404.125
976.64461	45257.325
980.38733	45236.425
984.12747	45206.325
987.86502	45349.325
991.59999	45526.025
995.33237	45819.225
999.06217	46315.425
1002.78939	47166.125
1006.51404	48069.425
1010.23611	49068.125
1013.95561	49683.425
1017.67255	49647.025
1021.38692	49067.425
1025.09872	48350.525
1028.80796	47749.725
1032.51465	47457.125
1036.21877	47528.225
1039.92035	47752.525
1043.61937	47997.525
1047.31584	48148.925
1051.00976	48311.925
1054.70114	48677.125
1058.38998	49058.525
1062.07627	49951.025
1065.76003	51029.525
1069.44126	52226.925
1073.11995	53471.925
1076.79611	54384.725
1080.46974	54483.025
1084.14085	54292.925
1087.80943	54259.525
1091.47549	54348.325
1095.13903	54387.225
1098.80005	53743.325
1102.45857	52500.225
1106.11456	51415.825
1109.76805	50722.725
1113.41903	50438.425
1117.06751	50435.525
1120.71348	50589.725
1124.35696	50945.125
1127.99793	51383.425
1131.63641	51722.125
1135.2724	51932.425
1138.90589	52161.425
1142.5369	52473.125
1146.16542	52781.925
1149.79145	53171.725
1153.415	53705.725
1157.03607	54473.225
1160.65467	55915.025
1164.27079	58189.025
1167.88443	60793.925
1171.49561	63290.925
1175.10432	65920.225
1178.71056	69090.025
1182.31434	72406.125
1185.91565	74546.025
1189.51451	75310.125
1193.11091	74874.425
1196.70485	73363.225
1200.29634	71205.625
1203.88538	69556.425
1207.47197	69194.725
1211.05612	69080.625
1214.63782	68439.625
1218.21708	66719.825
1221.79391	64504.025
1225.36829	62546.125
1228.94024	61466.125
1232.50976	60797.225
1236.07685	60417.125
1239.6415	60288.425
1243.20374	60323.325
1246.76355	60637.325
1250.32093	61442.625
1253.8759	62617.025
1257.42845	64239.225
1260.97859	65982.625
1264.52631	67847.325
1268.07163	69653.825
1271.61453	71329.325
1275.15503	73244.225
1278.69312	75076.625
1282.22882	76930.025
1285.76211	79018.325
1289.29301	81381.425
1292.82151	84250.525
1296.34761	87700.225
1299.87133	91843.825
1303.39266	95748.025
1306.9116	98990.425
1310.42815	100982.425
1313.94233	101429.225
1317.45412	100992.925
1320.96354	100611.125
1324.47058	100863.825
1327.97525	101784.325
1331.47754	102781.825
1334.97747	103470.925
1338.47502	103777.425
1341.97022	103992.725
1345.46305	103610.025
1348.95352	102485.325
1352.44163	100874.025
1355.92738	99577.525
1359.41078	99486.425
1362.89183	99453.025
1366.37053	97528.025
1369.84688	92671.925
1373.32088	85874.325
1376.79254	80601.425
1380.26186	78368.625
1383.72883	78418.525
1387.19347	78750.425
1390.65578	78344.525
1394.11575	78015.525
1397.57339	78556.525
1401.0287	79907.425
1404.48168	80990.525
1407.93234	80956.725
1411.38068	79393.325
1414.82669	76888.825
1418.27039	73927.225
1421.71177	71078.825
1425.15083	69087.525
1428.58758	68361.925
1432.02203	69173.025
1435.45416	71007.125
1438.88399	73218.825
1442.31151	74889.225
1445.73673	75598.525
1449.15965	75772.725
1452.58027	75690.325
1455.9986	75609.325
1459.41463	76202.325
1462.82837	77381.825
1466.23982	78693.625
1469.64898	79542.525
1473.05586	79995.325
1476.46045	79786.025
1479.86276	79180.225
1483.26279	78451.625
1486.66054	77897.225
1490.05602	77970.925
1493.44922	78401.425
1496.84016	79060.325
1500.22882	79973.325
1503.61521	81170.725
1506.99934	82410.525
1510.38121	83190.325
1513.76081	83321.225
1517.13816	83005.425
1520.51324	82696.925
1523.88607	82994.225
1527.25665	83610.825
1530.62498	84061.225
1533.99105	83844.825
1537.35488	82613.825
1540.71647	80803.025
1544.07581	78605.125
1547.4329	76649.925
1550.78776	74870.825
1554.14038	73548.025
1557.49077	72714.425
1560.83892	72044.625
1564.18484	71701.325
1567.52853	71489.925
1570.86999	72040.825
1574.20922	73645.425
1577.54624	75632.325
1580.88103	77164.425
1584.2136	78896.925
1587.54395	81230.825
1590.87208	84185.525
1594.19801	87430.125
1597.52172	90173.325
1600.84321	90105.525
1604.16251	86111.625
1607.47959	80433.025
1610.79447	74808.925
1614.10715	69347.225
1617.41763	64667.925
1620.7259	61193.225
1624.03199	59216.125
1627.33587	59163.925
1630.63757	60701.025
1633.93707	64266.825
1637.23439	70495.825
1640.52951	79273.525
1643.82246	88828.725
1647.11321	95421.925
1650.40179	95106.525
1653.68819	87670.625
1656.97241	76907.325
1660.25446	66802.225
1663.53433	59323.525
1666.81203	54395.225
1670.08756	51278.325
1673.36092	49315.525
1676.63211	47979.125
1679.90115	46999.625
1683.16801	46264.825
1686.43272	45778.925
1689.69527	45359.525
1692.95567	45025.925
1696.2139	44828.525
1699.46999	44706.825
1702.72392	44507.025
1705.97571	44359.825
1709.22535	44335.025
1712.47284	44151.525
1715.71819	44104.525
1718.96139	43938.725
1722.20246	43795.525
1725.44139	43633.825
1728.67818	43411.925
1731.91284	43180.925
1735.14537	42924.525
1738.37576	42728.825
1741.60403	42584.025
1744.83017	42414.225
1748.05418	42324.225
1751.27607	42193.825
1754.49584	42116.625
1757.71349	42095.125
1760.92903	42031.325
1764.14244	41965.025
1767.35375	41948.625
1770.56294	41947.925
1773.77002	41844.325
1776.97499	41871.125
1780.17785	41810.425
1783.37861	41686.825
1786.57727	41620.725
1789.77382	41477.425
1792.96828	41437.825
1796.16064	41338.625
1799.3509	41293.625
1802.53907	41267.225
1805.72514	41076.625
1808.90913	41013.325
1812.09102	40926.125
1815.27083	40866.725
1818.44856	40827.525
1821.6242	40791.825
1824.79776	40826.325
1827.96924	40813.925
1831.13864	40823.725
1834.30597	40832.925
1837.47122	40839.025
1840.6344	40847.625
1843.7955	40825.825
1846.95454	40812.925
1850.11151	40875.825
1853.26642	40828.425
1856.41926	40740.225
1859.57004	40667.925
1862.71876	40605.725
1865.86542	40553.225
1869.01003	40539.525
1872.15258	40467.725
1875.29308	40393.725
1878.43152	40258.225
1881.56792	40212.125
1884.70227	40158.125
1887.83457	40128.525
1890.96482	40101.325
1894.09304	40039.725
1897.21921	40007.025
1900.34335	39930.625
1903.46544	39848.425
1906.58551	39845.425
1909.70353	39739.725
1912.81953	39673.325
1915.93349	39562.525
1919.04543	39471.825
1922.15534	39427.025
1925.26322	39318.525
1928.36908	39234.825
1931.47292	39215.725
1934.57473	39076.325
1937.67453	38964.725
1940.77232	38934.225
1943.86808	38804.825
1946.96184	38659.325
1950.05358	38531.025
1953.14331	38474.325
1956.23103	38374.825
1959.31675	38297.025
1962.40046	38156.125
1965.48217	38028.925
1968.56188	37866.825
1971.63959	37819.425
1974.7153	37699.425
1977.78901	37580.925
1980.86073	37492.725
1983.93046	37348.925
1986.99819	37223.225
1990.06394	37203.925
1993.1277	37099.125
1996.18947	36985.025
1999.24925	36852.225
2002.30706	36707.125
2005.36288	36620.025
2008.41672	36532.625
2011.46859	36402.725
2014.51848	36327.425
2017.56639	36308.625
2020.61233	36195.925
2023.6563	36091.425
2026.6983	36002.025
2029.73833	35970.025
2032.7764	35866.325
2035.8125	35769.925
2038.84664	35648.225
2041.87881	35613.325
2044.90903	35600.625
2047.93729	35501.925
2050.96359	35450.725
2053.98794	35388.825
2057.01034	35372.225
2060.03078	35327.925
2063.04927	35309.325
2066.06582	35280.925
2069.08042	35272.325
2072.09307	35292.625
2075.10378	35255.825
2078.11255	35137.525
2081.11938	35239.625
2084.12426	35130.125
2087.12722	35175.525
2090.12824	35162.825
2093.12732	35166.225
2096.12447	35120.325
2099.11969	35101.625
2102.11299	35045.325
2105.10435	35109.725
2108.09379	35162.525
2111.08131	35229.925
2114.0669	35200.125
2117.05057	35228.325
2120.03233	35208.425
2123.01216	35260.425
2125.99008	35257.725
2128.96609	35252.825
2131.94018	35312.725
2134.91236	35296.025
2137.88263	35344.225
2140.851	35319.625
2143.81746	35295.525
2146.78201	35319.125
2149.74466	35304.725
2152.7054	35331.425
2155.66425	35308.625
2158.6212	35310.925
2161.57625	35293.425
2164.52941	35288.725
2167.48067	35294.625
2170.43004	35309.725
2173.37752	35313.925
2176.32311	35316.425
2179.26681	35177.525
2182.20863	35217.525
2185.14856	35274.825
2188.08661	35209.925
2191.02278	35228.125
2193.95707	35202.725
2196.88948	35137.725
2199.82001	35157.525
2202.74867	35092.225
2205.67545	35037.025
2208.60037	34960.025
2211.52341	34936.725
2214.44458	34900.925
2217.36388	34819.625
2220.28132	34784.125
2223.1969	34802.925
2226.11061	34717.125
2229.02246	34569.225
2231.93245	34587.925
2234.84058	34500.525
2237.74686	34459.125
2240.65128	34453.925
2243.55385	34347.325
2246.45456	34276.225
2249.35343	34213.125
2252.25044	34175.125
2255.14561	34048.025
2258.03893	34065.225
2260.93041	33949.225
2263.82004	33894.225
2266.70783	33788.325
2269.59378	33755.725
2272.4779	33698.125
2275.36017	33570.725
2278.24061	33483.625
2281.11922	33420.725
2283.996	33383.025
2286.87094	33315.325
2289.74405	33238.525
2292.61534	33245.125
2295.4848	33142.325
2298.35243	33135.225
2301.21824	33100.825
2304.08223	33112.025
2306.94439	33114.125
2309.80474	33078.325
2312.66327	33039.925
2315.51999	33021.125
2318.37489	32982.525
2321.22797	32930.825
2324.07925	32878.525
2326.92871	32782.825
2329.77637	32787.225
2332.62222	32748.725
2335.46626	32734.625
2338.3085	32697.125
2341.14893	32708.225
2343.98756	32734.525
2346.8244	32677.425
2349.65943	32620.625
2352.49267	32580.125
2355.32411	32583.025
2358.15376	32586.225
2360.98161	32527.825
2363.80768	32529.525
2366.63195	32531.325
2369.45444	32461.625
2372.27514	32437.225
2375.09405	32383.925
2377.91118	32373.525
2380.72652	32298.425
2383.54009	32245.225
2386.35187	32206.925
2389.16188	32073.825
2391.97011	32055.625
2394.77657	32063.925
2397.58125	32006.825
2400.38416	31926.725
2403.18529	31895.325
2405.98466	31857.825
2408.78226	31779.625
2411.57809	31776.125
2414.37216	31709.925
2417.16446	31717.025
2419.955	31662.625
2422.74378	31710.225
2425.5308	31596.825
2428.31606	31577.025
2431.09956	31564.625
2433.88131	31539.425
2436.6613	31541.825
2439.43954	31509.025
2442.21603	31425.825
2444.99077	31398.925
2447.76377	31437.825
2450.53501	31409.125
2453.30451	31357.125
2456.07226	31355.425
2458.83827	31313.825
2461.60254	31284.725
2464.36507	31256.125
2467.12586	31300.525
2469.88492	31219.225
2472.64224	31222.525
2475.39782	31206.125
2478.15167	31258.025
2480.90379	31240.125
2483.65417	31209.525
2486.40283	31171.825
2489.14976	31195.825
2491.89497	31135.725
2494.63845	31144.225
2497.3802	31122.325
2500.12024	31134.625
2502.85855	31166.625
2505.59514	31141.625
2508.33002	31160.225
2511.06318	31073.125
2513.79462	31057.525
2516.52435	31029.825
2519.25237	31015.225
2521.97867	30993.225
2524.70327	30985.225
2527.42616	30935.125
2530.14734	30909.025
2532.86681	30825.625
2535.58458	30861.725
2538.30065	30763.025
2541.01501	30802.825
2543.72768	30812.125
2546.43864	30731.425
2549.14791	30678.125
2551.85548	30687.425
2554.56136	30593.325
2557.26554	30580.325
2559.96803	30562.025
2562.66883	30525.525
2565.36794	30521.825
2568.06536	30438.125
2570.7611	30421.725
2573.45514	30364.325
2576.14751	30332.125
2578.83819	30315.225
2581.52719	30315.325
2584.21451	30237.725
2586.90015	30229.325
2589.58411	30162.625
2592.2664	30146.525
2594.94701	30117.825
2597.62594	30108.025
2600.30321	30002.825
2602.9788	30033.625
2605.65273	29987.625
2608.32498	29983.125
2610.99557	29908.225
2613.66449	29940.625
2616.33175	29905.625
2618.99734	29865.025
2621.66128	29820.925
2624.32355	29879.025
2626.98416	29808.125
2629.64311	29740.125
2632.30041	29732.025
2634.95605	29720.225
2637.61004	29705.225
2640.26238	29653.925
2642.91306	29634.625
2645.56209	29661.525
2648.20948	29664.525
2650.85521	29622.325
2653.4993	29647.625
2656.14175	29665.925
2658.78255	29691.125
2661.42171	29707.325
2664.05923	29710.325
2666.6951	29712.025
2669.32934	29718.025
2671.96194	29704.825
2674.59291	29688.425
2677.22224	29650.025
2679.84993	29673.625
2682.476	29664.925
2685.10043	29686.825
2687.72324	29630.225
2690.34441	29691.125
2692.96396	29663.625
2695.58188	29732.525
2698.19818	29661.225
2700.81285	29688.025
2703.4259	29641.025
2706.03733	29731.925
2708.64714	29708.425
2711.25533	29753.425
2713.86191	29731.025
2716.46687	29771.425
2719.07021	29736.025
2721.67194	29772.925
2724.27206	29707.225
2726.87057	29751.625
2729.46747	29802.025
2732.06276	29851.325
2734.65644	29782.325
2737.24852	29853.325
2739.83899	29789.825
2742.42786	29772.825
2745.01513	29709.925
2747.60079	29712.425
2750.18486	29706.225
2752.76733	29711.225
2755.3482	29703.625
2757.92747	29678.925
2760.50515	29653.925
2763.08123	29600.325
2765.65573	29593.225
2768.22863	29532.825
2770.79994	29485.325
2773.36967	29490.725
2775.9378	29403.325
2778.50435	29390.125
2781.06932	29371.925
2783.6327	29407.725
2786.1945	29352.925
2788.75471	29232.325
2791.31335	29195.825
2793.87041	29177.625
2796.42589	29117.625
2798.97979	29099.925
2801.53212	29076.925
2804.08288	29015.125
2806.63206	28956.125
2809.17967	28882.225
2811.72571	28838.125
2814.27018	28777.025
2816.81308	28691.025
2819.35442	28622.325
2821.89419	28593.325
2824.43239	28617.825
2826.96904	28552.925
2829.50412	28532.225
2832.03763	28429.725
2834.56959	28469.725
2837.1	28373.625
2839.62884	28339.025
2842.15613	28289.525
2844.68186	28252.625
2847.20604	28240.625
2849.72867	28223.025
2852.24974	28207.425
2854.76927	28174.425
2857.28724	28067.325
2859.80367	28073.325
2862.31855	28034.525
2864.83189	27996.225
2867.34368	27975.025
2869.85393	27960.625
2872.36264	27906.325
2874.8698	27933.625
2877.37543	27944.025
2879.87952	27911.525
2882.38207	27889.125
2884.88308	27875.825
2887.38256	27897.925
2889.88051	27847.825
2892.37692	27833.925
2894.8718	27858.725
2897.36515	27874.525
2899.85698	27841.525
2902.34727	27895.725
2904.83604	27883.325
2907.32328	27963.425
2909.809	27941.025
2912.29319	27941.725
2914.77587	27961.325
2917.25702	27950.625
2919.73665	27856.025
2922.21476	27897.125
2924.69136	27868.225
2927.16644	27853.725
2929.64	27850.325
2932.11205	27760.325
2934.58258	27709.325
2937.05161	27803.225
2939.51912	27823.625
2941.98513	27778.925
2944.44962	27664.425
2946.91261	27594.725
2949.37409	27690.225
2951.83407	27663.125
2954.29254	27540.225
2956.74951	27479.925
2959.20498	27489.925
2961.65895	27428.025
2964.11142	27483.325
2966.56239	27376.025
2969.01186	27400.425
2971.45984	27300.625
2973.90632	27262.425
2976.35131	27218.425
2978.7948	27173.025
2981.23681	27128.625
2983.67732	27116.825
2986.11635	27016.125
2988.55388	26974.725
2990.98993	26872.525
2993.4245	26837.425
2995.85758	26751.125
2998.28917	26690.725
3000.71928	26648.725
3003.14791	26558.825
3005.57506	26548.425
3008.00073	26460.625
3010.42493	26388.725
3012.84764	26364.525
3015.26888	26330.325
3017.68865	26265.625
3020.10694	26298.525
3022.52376	26209.825
3024.9391	26209.325
3027.35298	26150.825
3029.76539	26139.425
3032.17632	26054.725
3034.5858	26019.525
3036.9938	26009.625
3039.40034	25928.625
3041.80542	25935.425
3044.20903	25844.525
3046.61118	25855.025
3049.01187	25735.625
3051.4111	25693.425
3053.80888	25649.625
3056.20519	25583.725
3058.60005	25508.225
3060.99345	25514.725
3063.3854	25380.725
3065.7759	25272.025
3068.16494	25244.125
3070.55254	25188.425
3072.93868	25087.625
3075.32338	25014.025
3077.70662	24996.225
3080.08842	24870.925
3082.46878	24922.925
3084.84769	24896.925
3087.22515	24781.325
3089.60118	24758.625
3091.97576	24757.225
3094.3489	24696.025
3096.72061	24693.325
3099.09087	24671.525
3101.4597	24638.425
3103.82709	24593.025
3106.19305	24519.625
3108.55757	24511.625
3110.92066	24385.825
3113.28232	24389.725
3115.64255	24295.025
3118.00134	24234.225
3120.35871	24198.525
3122.71466	24163.125
3125.06917	24145.325
3127.42226	24102.425
3129.77393	24068.825
3132.12417	24041.925
3134.47299	24007.225
3136.82039	24002.725
3139.16636	23992.425
3141.51092	23968.025
3143.85406	23927.825
3146.19579	23870.825
3148.53609	23863.325
3150.87499	23907.825
3153.21246	23846.525
3155.54853	23875.325
3157.88318	23818.625
3160.21642	23817.225
3162.54826	23773.225
3164.87868	23750.225
3167.2077	23707.025
3169.5353	23694.025
3171.86151	23692.325
3174.18631	23599.925
3176.5097	23567.325
3178.83169	23540.525
3181.15228	23513.025
3183.47147	23481.925
3185.78926	23464.325
3188.10565	23449.625
3190.42065	23386.825
3192.73424	23393.925
3195.04645	23373.825
3197.35725	23367.625
3199.66667	23309.025
3201.97469	23344.325
3204.28132	23273.325
3206.58656	23258.825
3208.8904	23253.825
3211.19287	23221.925
3213.49394	23201.225
3215.79363	23179.025
3218.09193	23194.925
3220.38884	23169.125
3222.68438	23236.025
3224.97853	23172.625
3227.2713	23132.425
3229.56269	23068.925
3231.8527	23042.925
3234.14133	22977.725
3236.42858	22955.225
3238.71446	22899.925
3240.99896	22839.525
3243.28209	22861.425
3245.56384	22828.825
3247.84423	22815.425
3250.12324	22773.425
3252.40088	22709.125
3254.67715	22691.625
3256.95205	22636.525
3259.22558	22607.425
3261.49775	22540.125
3263.76855	22482.725
3266.03799	22411.625
3268.30606	22407.525
3270.57277	22364.425
3272.83812	22314.725
3275.10211	22304.325
3277.36474	22282.725
3279.62601	22312.125
3281.88593	22251.225
3284.14448	22245.925
3286.40168	22213.225
3288.65753	22146.325
3290.91202	22138.625
3293.16516	22056.925
3295.41695	22028.925
3297.66738	21837.325
3299.91647	21747.325
3302.16421	21562.825
3304.4106	21546.125
3306.65564	21445.125
3308.89933	21277.025
3311.14169	21109.725
3313.38269	20908.125
3315.62236	20793.325
3317.86068	20583.025
3320.09766	20388.325
3322.3333	20218.625
3324.5676	20184.725
3326.80056	19875.125
3329.03219	19757.125
3331.26248	5.225
3333.49143	0.325
3335.71905	-0.475
