Data from AgNP_FTO_APTES_CRN_50uM_R6G_10uM_NaF_0.1M_Addition_RamanShift__28__18-18-38-090.txt Node

Date: Wed Dec 15 18:18:38 GMT 2021
User: TCL
Spectrometer: QEP01345
Trigger mode: 4
Integration Time (sec): 7.000000E0
Scans to average: 10
Electric dark correction enabled: true
Nonlinearity correction enabled: false
Boxcar width: 0
XAxis mode: Raman Shifts
Number of Pixels in Spectrum: 1044
>>>>>Begin Spectral Data<<<<<
46.04893	1.2125
50.45542	-1.8875
54.85868	-1.2875
59.25871	-0.7875
63.6555	62.2125
68.04907	72.6125
72.43941	71.5125
76.82654	75.7125
81.21044	78.5125
85.59113	82.4125
89.96862	87.4125
94.34289	85.4125
98.71396	90.1125
103.08183	97.0125
107.4465	96.8125
111.80798	98.6125
116.16626	98.5125
120.52136	102.8125
124.87327	103.5125
129.222	112.4125
133.56755	117.8125
137.90993	125.3125
142.24913	133.9125
146.58517	150.2125
150.91804	168.2125
155.24774	197.5125
159.57429	238.5125
163.89768	306.4125
168.21792	403.1125
172.53501	546.3125
176.84895	746.3125
181.15975	1054.9125
185.46741	1470.2125
189.77193	2032.9125
194.07331	2723.1125
198.37157	3516.3125
202.6667	4348.8125
206.9587	5149.3125
211.24758	5975.6125
215.53334	6784.7125
219.81599	7661.6125
224.09553	8641.7125
228.37195	9692.0125
232.64527	10862.0125
236.91549	12127.2125
241.18261	13328.8125
245.44663	14449.0125
249.70755	15477.7125
253.96539	16341.7125
258.22014	17094.9125
262.4718	17736.6125
266.72039	18202.3125
270.96589	18476.4125
275.20832	18570.3125
279.44768	18427.1125
283.68397	18280.2125
287.91719	18104.7125
292.14735	18050.0125
296.37445	18107.7125
300.59849	18288.4125
304.81948	18504.3125
309.03742	18566.3125
313.25231	18447.4125
317.46415	17908.7125
321.67296	17228.1125
325.87872	16672.1125
330.08145	16419.8125
334.28114	16446.0125
338.47781	16597.0125
342.67145	16912.5125
346.86207	17279.4125
351.04966	17881.8125
355.23424	18464.7125
359.4158	18909.5125
363.59435	19248.2125
367.76989	19417.8125
371.94243	19496.2125
376.11196	19547.8125
380.27849	19607.6125
384.44203	19613.0125
388.60257	19568.2125
392.76012	19689.8125
396.91468	19852.1125
401.06626	20202.2125
405.21485	20512.7125
409.36047	20408.2125
413.50311	19955.9125
417.64277	19510.1125
421.77947	19229.8125
425.9132	19234.4125
430.04396	19291.6125
434.17176	19423.6125
438.2966	19626.7125
442.41849	19947.9125
446.53742	20361.3125
450.6534	20847.1125
454.76644	21215.1125
458.87653	21380.3125
462.98368	21341.0125
467.08789	21139.5125
471.18916	20910.4125
475.2875	20565.0125
479.38291	20314.8125
483.4754	20134.7125
487.56496	19924.2125
491.6516	19713.0125
495.73531	19563.5125
499.81612	19535.5125
503.89401	19682.3125
507.96899	19778.9125
512.04106	19859.8125
516.11023	20043.5125
520.1765	20156.4125
524.23987	20189.8125
528.30034	20041.9125
532.35792	19855.2125
536.41261	19577.0125
540.46441	19371.1125
544.51333	19294.9125
548.55936	19362.2125
552.60252	19675.6125
556.64279	19947.7125
560.6802	20101.3125
564.71473	20192.6125
568.7464	20503.8125
572.7752	20786.4125
576.80114	20688.6125
580.82422	20499.2125
584.84444	20493.2125
588.86181	20610.4125
592.87633	20761.7125
596.888	21004.6125
600.89682	21435.7125
604.9028	22582.5125
608.90594	25492.8125
612.90624	28973.3125
616.90371	27887.4125
620.89834	22826.9125
624.89015	20533.9125
628.87913	20136.2125
632.86528	20130.7125
636.84862	20194.0125
640.82913	19945.0125
644.80683	19522.0125
648.78172	19176.7125
652.75379	19209.3125
656.72306	19538.9125
660.68952	19976.3125
664.65319	19938.4125
668.61405	19536.4125
672.57211	19348.4125
676.52738	19354.5125
680.47986	19349.4125
684.42955	19321.9125
688.37646	19336.3125
692.32058	19406.4125
696.26192	19494.5125
700.20048	19653.7125
704.13626	19802.4125
708.06928	19760.7125
711.99952	19623.3125
715.927	19575.2125
719.85171	19602.8125
723.77365	19531.3125
727.69284	19391.4125
731.60928	19311.2125
735.52295	19255.8125
739.43388	19297.9125
743.34206	19367.9125
747.24749	19452.3125
751.15017	19571.1125
755.05012	19816.1125
758.94733	20289.8125
762.8418	21342.1125
766.73354	23059.1125
770.62254	24935.7125
774.50882	25689.4125
778.39237	24745.3125
782.27321	22760.8125
786.15132	21008.9125
790.02671	19992.7125
793.89938	19506.2125
797.76935	19315.5125
801.6366	19277.2125
805.50115	19216.0125
809.36299	19155.3125
813.22213	19100.4125
817.07857	19098.1125
820.93231	19125.3125
824.78336	19099.9125
828.63172	19179.5125
832.47738	19219.7125
836.32036	19279.3125
840.16066	19305.0125
843.99827	19280.3125
847.8332	19231.8125
851.66546	19180.2125
855.49504	19169.6125
859.32195	19137.1125
863.1462	19107.2125
866.96777	19030.9125
870.78668	18986.5125
874.60293	18998.9125
878.41652	19034.6125
882.22745	19064.8125
886.03573	19114.5125
889.84136	19100.1125
893.64433	19016.7125
897.44466	18969.2125
901.24235	18934.2125
905.0374	18918.7125
908.8298	18936.7125
912.61957	18953.9125
916.40671	19027.9125
920.19121	19148.0125
923.97308	19240.1125
927.75233	19343.1125
931.52895	19455.4125
935.30295	19284.1125
939.07433	19017.6125
942.84309	18715.7125
946.60924	18623.9125
950.37278	18548.2125
954.13371	18444.2125
957.89203	18345.9125
961.64774	18341.5125
965.40086	18266.7125
969.15137	18186.3125
972.89929	18161.0125
976.64461	18150.8125
980.38733	18139.6125
984.12747	18215.9125
987.86502	18342.6125
991.59999	18506.8125
995.33237	18730.8125
999.06217	19094.5125
1002.78939	19507.6125
1006.51404	19798.2125
1010.23611	19967.2125
1013.95561	20125.8125
1017.67255	20190.2125
1021.38692	20004.5125
1025.09872	19859.9125
1028.80796	19998.6125
1032.51465	20323.2125
1036.21877	20647.4125
1039.92035	20692.2125
1043.61937	20572.6125
1047.31584	20220.5125
1051.00976	19941.5125
1054.70114	19786.8125
1058.38998	19809.3125
1062.07627	19927.5125
1065.76003	20128.0125
1069.44126	20355.0125
1073.11995	20702.9125
1076.79611	21005.8125
1080.46974	21158.1125
1084.14085	21226.3125
1087.80943	21142.5125
1091.47549	21026.1125
1095.13903	20718.8125
1098.80005	20271.1125
1102.45857	19903.8125
1106.11456	19729.3125
1109.76805	19746.4125
1113.41903	19891.6125
1117.06751	20176.2125
1120.71348	20501.1125
1124.35696	20815.9125
1127.99793	21092.5125
1131.63641	21135.7125
1135.2724	20769.2125
1138.90589	20375.9125
1142.5369	20111.1125
1146.16542	19882.8125
1149.79145	19848.7125
1153.415	19905.8125
1157.03607	20039.5125
1160.65467	20253.6125
1164.27079	20711.8125
1167.88443	21428.7125
1171.49561	22442.6125
1175.10432	24120.4125
1178.71056	26147.3125
1182.31434	27768.7125
1185.91565	28384.9125
1189.51451	27990.3125
1193.11091	26988.9125
1196.70485	25642.6125
1200.29634	24534.5125
1203.88538	23770.2125
1207.47197	23060.2125
1211.05612	22434.1125
1214.63782	22074.1125
1218.21708	21992.7125
1221.79391	21932.7125
1225.36829	21989.7125
1228.94024	21961.6125
1232.50976	21873.7125
1236.07685	21795.4125
1239.6415	21868.4125
1243.20374	21961.1125
1246.76355	22098.7125
1250.32093	22347.0125
1253.8759	22759.2125
1257.42845	23259.1125
1260.97859	23663.1125
1264.52631	24039.8125
1268.07163	24410.5125
1271.61453	24826.9125
1275.15503	25209.3125
1278.69312	25577.1125
1282.22882	25887.4125
1285.76211	26259.8125
1289.29301	26748.8125
1292.82151	27333.9125
1296.34761	27995.0125
1299.87133	28938.6125
1303.39266	30383.9125
1306.9116	32339.2125
1310.42815	34497.1125
1313.94233	35878.1125
1317.45412	35751.6125
1320.96354	34639.0125
1324.47058	33194.9125
1327.97525	31928.5125
1331.47754	31186.0125
1334.97747	30997.0125
1338.47502	31289.4125
1341.97022	31734.8125
1345.46305	32082.5125
1348.95352	32323.7125
1352.44163	32917.4125
1355.92738	34231.1125
1359.41078	36783.3125
1362.89183	39334.1125
1366.37053	38780.8125
1369.84688	35050.8125
1373.32088	31025.1125
1376.79254	28419.2125
1380.26186	27063.5125
1383.72883	26489.5125
1387.19347	26070.5125
1390.65578	25623.8125
1394.11575	25302.8125
1397.57339	25201.2125
1401.0287	25467.5125
1404.48168	25788.3125
1407.93234	26113.0125
1411.38068	26303.6125
1414.82669	26159.3125
1418.27039	25672.9125
1421.71177	25033.1125
1425.15083	24459.6125
1428.58758	24122.1125
1432.02203	24081.7125
1435.45416	24200.7125
1438.88399	24417.8125
1442.31151	24523.2125
1445.73673	24656.7125
1449.15965	24849.4125
1452.58027	24901.7125
1455.9986	24842.4125
1459.41463	24815.2125
1462.82837	25046.4125
1466.23982	25399.6125
1469.64898	25805.7125
1473.05586	26151.7125
1476.46045	26329.1125
1479.86276	26565.7125
1483.26279	26833.1125
1486.66054	27146.2125
1490.05602	27606.8125
1493.44922	28115.0125
1496.84016	28714.7125
1500.22882	29608.7125
1503.61521	30958.2125
1506.99934	32649.8125
1510.38121	34379.8125
1513.76081	35306.5125
1517.13816	34522.2125
1520.51324	32344.1125
1523.88607	30001.4125
1527.25665	28317.9125
1530.62498	27335.8125
1533.99105	26819.0125
1537.35488	26505.0125
1540.71647	26315.6125
1544.07581	26180.5125
1547.4329	25985.6125
1550.78776	25845.7125
1554.14038	25691.6125
1557.49077	25789.5125
1560.83892	25925.7125
1564.18484	26144.0125
1567.52853	26447.8125
1570.86999	26755.3125
1574.20922	27183.0125
1577.54624	27503.0125
1580.88103	27378.4125
1584.2136	26912.6125
1587.54395	26559.9125
1590.87208	26773.7125
1594.19801	27656.4125
1597.52172	28909.6125
1600.84321	29532.8125
1604.16251	28750.4125
1607.47959	27239.3125
1610.79447	25518.9125
1614.10715	23972.3125
1617.41763	22672.1125
1620.7259	21903.9125
1624.03199	21472.3125
1627.33587	21505.6125
1630.63757	21872.0125
1633.93707	22608.7125
1637.23439	23681.2125
1640.52951	25158.6125
1643.82246	26888.8125
1647.11321	28656.1125
1650.40179	29651.5125
1653.68819	28914.6125
1656.97241	26368.2125
1660.25446	23653.7125
1663.53433	21538.2125
1666.81203	20178.1125
1670.08756	19394.2125
1673.36092	18871.0125
1676.63211	18520.2125
1679.90115	18268.9125
1683.16801	18062.5125
1686.43272	17967.6125
1689.69527	17877.5125
1692.95567	17797.0125
1696.2139	17763.0125
1699.46999	17746.7125
1702.72392	17738.1125
1705.97571	17721.7125
1709.22535	17671.4125
1712.47284	17669.9125
1715.71819	17646.9125
1718.96139	17606.6125
1722.20246	17623.5125
1725.44139	17580.2125
1728.67818	17482.7125
1731.91284	17441.7125
1735.14537	17339.4125
1738.37576	17290.6125
1741.60403	17241.3125
1744.83017	17248.8125
1748.05418	17178.2125
1751.27607	17198.2125
1754.49584	17146.7125
1757.71349	17142.8125
1760.92903	17152.6125
1764.14244	17139.3125
1767.35375	17159.6125
1770.56294	17085.7125
1773.77002	17101.9125
1776.97499	17092.9125
1780.17785	17064.7125
1783.37861	17021.6125
1786.57727	16985.6125
1789.77382	16969.5125
1792.96828	16950.8125
1796.16064	16952.0125
1799.3509	16916.8125
1802.53907	16898.0125
1805.72514	16854.2125
1808.90913	16820.6125
1812.09102	16775.9125
1815.27083	16758.6125
1818.44856	16749.2125
1821.6242	16722.4125
1824.79776	16699.4125
1827.96924	16712.3125
1831.13864	16722.3125
1834.30597	16723.0125
1837.47122	16694.7125
1840.6344	16670.1125
1843.7955	16681.4125
1846.95454	16676.2125
1850.11151	16656.3125
1853.26642	16653.4125
1856.41926	16661.7125
1859.57004	16660.7125
1862.71876	16665.1125
1865.86542	16656.1125
1869.01003	16634.1125
1872.15258	16621.7125
1875.29308	16606.4125
1878.43152	16603.3125
1881.56792	16630.4125
1884.70227	16609.8125
1887.83457	16614.5125
1890.96482	16575.9125
1894.09304	16573.3125
1897.21921	16597.2125
1900.34335	16540.0125
1903.46544	16550.4125
1906.58551	16556.2125
1909.70353	16539.2125
1912.81953	16519.0125
1915.93349	16486.7125
1919.04543	16470.0125
1922.15534	16432.0125
1925.26322	16462.0125
1928.36908	16409.4125
1931.47292	16384.2125
1934.57473	16344.5125
1937.67453	16295.6125
1940.77232	16255.2125
1943.86808	16235.5125
1946.96184	16198.8125
1950.05358	16146.7125
1953.14331	16121.6125
1956.23103	16078.9125
1959.31675	16039.7125
1962.40046	15983.4125
1965.48217	15927.8125
1968.56188	15913.0125
1971.63959	15851.3125
1974.7153	15799.3125
1977.78901	15769.8125
1980.86073	15695.0125
1983.93046	15708.0125
1986.99819	15643.3125
1990.06394	15614.9125
1993.1277	15536.9125
1996.18947	15484.4125
1999.24925	15469.7125
2002.30706	15404.4125
2005.36288	15387.4125
2008.41672	15352.9125
2011.46859	15292.1125
2014.51848	15289.7125
2017.56639	15234.7125
2020.61233	15212.6125
2023.6563	15178.4125
2026.6983	15166.5125
2029.73833	15141.3125
2032.7764	15062.1125
2035.8125	15063.2125
2038.84664	14997.5125
2041.87881	15024.6125
2044.90903	15003.2125
2047.93729	14962.9125
2050.96359	14952.1125
2053.98794	14944.8125
2057.01034	14917.0125
2060.03078	14885.6125
2063.04927	14894.7125
2066.06582	14880.6125
2069.08042	14864.1125
2072.09307	14870.0125
2075.10378	14852.8125
2078.11255	14813.1125
2081.11938	14834.7125
2084.12426	14832.5125
2087.12722	14803.6125
2090.12824	14817.4125
2093.12732	14815.4125
2096.12447	14838.5125
2099.11969	14833.7125
2102.11299	14823.2125
2105.10435	14825.6125
2108.09379	14871.1125
2111.08131	14850.2125
2114.0669	14864.7125
2117.05057	14885.0125
2120.03233	14892.9125
2123.01216	14863.1125
2125.99008	14904.5125
2128.96609	14908.2125
2131.94018	14931.8125
2134.91236	14961.6125
2137.88263	14954.6125
2140.851	14966.8125
2143.81746	14969.1125
2146.78201	15005.7125
2149.74466	15007.8125
2152.7054	15007.9125
2155.66425	15013.2125
2158.6212	15024.5125
2161.57625	14993.7125
2164.52941	15024.0125
2167.48067	14968.3125
2170.43004	14991.8125
2173.37752	14995.5125
2176.32311	14985.5125
2179.26681	15005.2125
2182.20863	14991.9125
2185.14856	14998.4125
2188.08661	14993.8125
2191.02278	14989.0125
2193.95707	14989.7125
2196.88948	14976.3125
2199.82001	14947.5125
2202.74867	14934.1125
2205.67545	14939.2125
2208.60037	14944.7125
2211.52341	14928.0125
2214.44458	14910.3125
2217.36388	14853.8125
2220.28132	14860.7125
2223.1969	14837.5125
2226.11061	14852.4125
2229.02246	14804.0125
2231.93245	14798.6125
2234.84058	14747.8125
2237.74686	14739.5125
2240.65128	14716.0125
2243.55385	14674.8125
2246.45456	14659.5125
2249.35343	14629.7125
2252.25044	14645.0125
2255.14561	14625.9125
2258.03893	14621.4125
2260.93041	14582.8125
2263.82004	14573.3125
2266.70783	14569.2125
2269.59378	14484.4125
2272.4779	14507.3125
2275.36017	14448.3125
2278.24061	14402.0125
2281.11922	14366.0125
2283.996	14342.1125
2286.87094	14381.1125
2289.74405	14324.4125
2292.61534	14317.8125
2295.4848	14282.2125
2298.35243	14328.5125
2301.21824	14290.4125
2304.08223	14281.5125
2306.94439	14285.3125
2309.80474	14276.8125
2312.66327	14303.3125
2315.51999	14260.8125
2318.37489	14250.7125
2321.22797	14244.1125
2324.07925	14226.0125
2326.92871	14225.9125
2329.77637	14223.9125
2332.62222	14229.1125
2335.46626	14185.2125
2338.3085	14182.7125
2341.14893	14193.5125
2343.98756	14174.4125
2346.8244	14182.6125
2349.65943	14174.1125
2352.49267	14179.4125
2355.32411	14170.2125
2358.15376	14120.6125
2360.98161	14153.4125
2363.80768	14160.3125
2366.63195	14119.3125
2369.45444	14114.5125
2372.27514	14094.2125
2375.09405	14055.1125
2377.91118	14021.1125
2380.72652	14011.2125
2383.54009	13957.0125
2386.35187	13946.1125
2389.16188	13883.9125
2391.97011	13898.7125
2394.77657	13874.9125
2397.58125	13869.7125
2400.38416	13842.6125
2403.18529	13827.4125
2405.98466	13790.5125
2408.78226	13764.2125
2411.57809	13779.2125
2414.37216	13706.3125
2417.16446	13697.6125
2419.955	13709.7125
2422.74378	13667.4125
2425.5308	13639.8125
2428.31606	13657.8125
2431.09956	13643.0125
2433.88131	13599.9125
2436.6613	13640.4125
2439.43954	13622.5125
2442.21603	13614.3125
2444.99077	13582.8125
2447.76377	13565.7125
2450.53501	13561.4125
2453.30451	13555.1125
2456.07226	13544.0125
2458.83827	13541.8125
2461.60254	13508.2125
2464.36507	13514.7125
2467.12586	13523.1125
2469.88492	13536.8125
2472.64224	13491.9125
2475.39782	13517.8125
2478.15167	13522.1125
2480.90379	13530.7125
2483.65417	13510.4125
2486.40283	13529.9125
2489.14976	13530.6125
2491.89497	13536.7125
2494.63845	13543.7125
2497.3802	13531.1125
2500.12024	13548.7125
2502.85855	13514.9125
2505.59514	13519.8125
2508.33002	13478.8125
2511.06318	13445.0125
2513.79462	13449.1125
2516.52435	13426.7125
2519.25237	13418.9125
2521.97867	13381.7125
2524.70327	13387.3125
2527.42616	13365.0125
2530.14734	13354.0125
2532.86681	13326.1125
2535.58458	13306.6125
2538.30065	13300.3125
2541.01501	13272.8125
2543.72768	13262.3125
2546.43864	13259.9125
2549.14791	13260.2125
2551.85548	13233.0125
2554.56136	13208.0125
2557.26554	13220.5125
2559.96803	13180.6125
2562.66883	13180.6125
2565.36794	13183.4125
2568.06536	13159.9125
2570.7611	13125.9125
2573.45514	13143.5125
2576.14751	13107.9125
2578.83819	13100.4125
2581.52719	13100.7125
2584.21451	13067.8125
2586.90015	13069.0125
2589.58411	13044.3125
2592.2664	13005.2125
2594.94701	12991.3125
2597.62594	13012.2125
2600.30321	12971.6125
2602.9788	12958.1125
2605.65273	12973.1125
2608.32498	12921.6125
2610.99557	12947.2125
2613.66449	12917.8125
2616.33175	12921.4125
2618.99734	12931.3125
2621.66128	12904.8125
2624.32355	12923.7125
2626.98416	12912.0125
2629.64311	12867.0125
2632.30041	12892.2125
2634.95605	12891.2125
2637.61004	12873.8125
2640.26238	12855.4125
2642.91306	12827.5125
2645.56209	12840.7125
2648.20948	12805.6125
2650.85521	12773.8125
2653.4993	12779.4125
2656.14175	12780.3125
2658.78255	12818.0125
2661.42171	12777.3125
2664.05923	12810.6125
2666.6951	12805.0125
2669.32934	12813.4125
2671.96194	12801.6125
2674.59291	12806.4125
2677.22224	12812.4125
2679.84993	12820.7125
2682.476	12802.6125
2685.10043	12786.1125
2687.72324	12803.8125
2690.34441	12828.2125
2692.96396	12783.0125
2695.58188	12803.3125
2698.19818	12789.7125
2700.81285	12809.9125
2703.4259	12824.6125
2706.03733	12886.5125
2708.64714	12856.5125
2711.25533	12835.9125
2713.86191	12822.1125
2716.46687	12841.3125
2719.07021	12843.4125
2721.67194	12813.9125
2724.27206	12815.3125
2726.87057	12833.8125
2729.46747	12795.9125
2732.06276	12803.6125
2734.65644	12795.6125
2737.24852	12790.4125
2739.83899	12781.8125
2742.42786	12801.7125
2745.01513	12775.2125
2747.60079	12776.7125
2750.18486	12746.4125
2752.76733	12788.2125
2755.3482	12746.1125
2757.92747	12764.8125
2760.50515	12754.7125
2763.08123	12734.1125
2765.65573	12705.6125
2768.22863	12709.7125
2770.79994	12682.5125
2773.36967	12674.9125
2775.9378	12644.0125
2778.50435	12656.7125
2781.06932	12627.1125
2783.6327	12641.3125
2786.1945	12592.5125
2788.75471	12585.7125
2791.31335	12568.2125
2793.87041	12557.1125
2796.42589	12545.3125
2798.97979	12509.6125
2801.53212	12517.1125
2804.08288	12506.2125
2806.63206	12453.0125
2809.17967	12428.3125
2811.72571	12408.9125
2814.27018	12432.8125
2816.81308	12389.2125
2819.35442	12401.6125
2821.89419	12375.7125
2824.43239	12391.4125
2826.96904	12360.1125
2829.50412	12367.0125
2832.03763	12325.1125
2834.56959	12348.6125
2837.1	12317.5125
2839.62884	12315.4125
2842.15613	12323.9125
2844.68186	12344.6125
2847.20604	12333.4125
2849.72867	12328.9125
2852.24974	12324.7125
2854.76927	12338.0125
2857.28724	12292.1125
2859.80367	12325.6125
2862.31855	12277.8125
2864.83189	12240.5125
2867.34368	12233.7125
2869.85393	12268.2125
2872.36264	12247.1125
2874.8698	12241.9125
2877.37543	12243.2125
2879.87952	12238.2125
2882.38207	12245.0125
2884.88308	12259.4125
2887.38256	12265.2125
2889.88051	12249.9125
2892.37692	12252.9125
2894.8718	12230.4125
2897.36515	12247.0125
2899.85698	12234.4125
2902.34727	12239.4125
2904.83604	12257.0125
2907.32328	12271.1125
2909.809	12253.5125
2912.29319	12263.3125
2914.77587	12266.6125
2917.25702	12258.8125
2919.73665	12238.4125
2922.21476	12267.1125
2924.69136	12243.0125
2927.16644	12204.2125
2929.64	12229.7125
2932.11205	12183.6125
2934.58258	12163.8125
2937.05161	12219.3125
2939.51912	12220.7125
2941.98513	12191.8125
2944.44962	12151.8125
2946.91261	12114.0125
2949.37409	12142.1125
2951.83407	12123.0125
2954.29254	12105.9125
2956.74951	12082.5125
2959.20498	12084.6125
2961.65895	12072.0125
2964.11142	12080.0125
2966.56239	12029.4125
2969.01186	12041.4125
2971.45984	12011.1125
2973.90632	11994.4125
2976.35131	11934.2125
2978.7948	11938.0125
2981.23681	11954.7125
2983.67732	11909.4125
2986.11635	11900.3125
2988.55388	11887.8125
2990.98993	11849.3125
2993.4245	11806.1125
2995.85758	11806.3125
2998.28917	11768.7125
3000.71928	11765.4125
3003.14791	11741.6125
3005.57506	11736.4125
3008.00073	11734.6125
3010.42493	11725.8125
3012.84764	11692.6125
3015.26888	11647.1125
3017.68865	11635.1125
3020.10694	11621.5125
3022.52376	11601.5125
3024.9391	11602.0125
3027.35298	11595.4125
3029.76539	11600.4125
3032.17632	11580.4125
3034.5858	11556.5125
3036.9938	11535.9125
3039.40034	11528.7125
3041.80542	11523.9125
3044.20903	11504.6125
3046.61118	11473.9125
3049.01187	11460.0125
3051.4111	11467.1125
3053.80888	11448.6125
3056.20519	11417.2125
3058.60005	11399.6125
3060.99345	11358.8125
3063.3854	11335.7125
3065.7759	11345.1125
3068.16494	11274.9125
3070.55254	11265.1125
3072.93868	11264.4125
3075.32338	11215.8125
3077.70662	11184.7125
3080.08842	11151.1125
3082.46878	11184.2125
3084.84769	11140.7125
3087.22515	11142.8125
3089.60118	11138.7125
3091.97576	11146.0125
3094.3489	11143.2125
3096.72061	11147.0125
3099.09087	11119.9125
3101.4597	11110.1125
3103.82709	11114.1125
3106.19305	11088.1125
3108.55757	11068.8125
3110.92066	11049.1125
3113.28232	11035.6125
3115.64255	11013.9125
3118.00134	10984.6125
3120.35871	10986.8125
3122.71466	10966.2125
3125.06917	10982.5125
3127.42226	10938.3125
3129.77393	10984.5125
3132.12417	10958.8125
3134.47299	10965.5125
3136.82039	10942.6125
3139.16636	10960.8125
3141.51092	10951.5125
3143.85406	10978.3125
3146.19579	10951.7125
3148.53609	10977.1125
3150.87499	10966.0125
3153.21246	10967.0125
3155.54853	10973.6125
3157.88318	10971.9125
3160.21642	10968.8125
3162.54826	10946.1125
3164.87868	10970.3125
3167.2077	10952.1125
3169.5353	10949.1125
3171.86151	10961.2125
3174.18631	10959.2125
3176.5097	10947.6125
3178.83169	10914.5125
3181.15228	10917.1125
3183.47147	10918.9125
3185.78926	10925.5125
3188.10565	10891.5125
3190.42065	10889.6125
3192.73424	10872.9125
3195.04645	10867.9125
3197.35725	10896.8125
3199.66667	10900.3125
3201.97469	10891.3125
3204.28132	10917.4125
3206.58656	10931.0125
3208.8904	10886.8125
3211.19287	10922.4125
3213.49394	10900.5125
3215.79363	10930.3125
3218.09193	10914.5125
3220.38884	10936.1125
3222.68438	10932.9125
3224.97853	10900.4125
3227.2713	10893.9125
3229.56269	10868.6125
3231.8527	10865.2125
3234.14133	10847.4125
3236.42858	10825.2125
3238.71446	10817.7125
3240.99896	10791.9125
3243.28209	10801.7125
3245.56384	10783.8125
3247.84423	10783.7125
3250.12324	10752.1125
3252.40088	10791.8125
3254.67715	10782.0125
3256.95205	10760.4125
3259.22558	10773.9125
3261.49775	10760.2125
3263.76855	10757.1125
3266.03799	10682.6125
3268.30606	10690.9125
3270.57277	10685.0125
3272.83812	10642.4125
3275.10211	10649.1125
3277.36474	10630.7125
3279.62601	10616.0125
3281.88593	10612.7125
3284.14448	10611.6125
3286.40168	10650.1125
3288.65753	10607.8125
3290.91202	10601.6125
3293.16516	10555.9125
3295.41695	10537.4125
3297.66738	10474.3125
3299.91647	10426.5125
3302.16421	10354.5125
3304.4106	10336.8125
3306.65564	10295.8125
3308.89933	10231.8125
3311.14169	10185.4125
3313.38269	10089.9125
3315.62236	10068.1125
3317.86068	9964.4125
3320.09766	9863.5125
3322.3333	9798.3125
3324.5676	9785.8125
3326.80056	9654.3125
3329.03219	9594.3125
3331.26248	4.0125
3333.49143	-0.8875
3335.71905	-0.0875
