Data from AgNP_FTO_APTES_CRN_5uM_R6G_10uM_NaF_0.1M_Addition_RamanShift__19__15-48-07-920.txt Node

Date: Wed Dec 15 15:48:07 GMT 2021
User: TCL
Spectrometer: QEP01345
Trigger mode: 4
Integration Time (sec): 7.000000E0
Scans to average: 10
Electric dark correction enabled: true
Nonlinearity correction enabled: false
Boxcar width: 0
XAxis mode: Raman Shifts
Number of Pixels in Spectrum: 1044
>>>>>Begin Spectral Data<<<<<
46.04893	0.3375
50.45542	-2.4625
54.85868	-0.3625
59.25871	-1.3625
63.6555	103.2375
68.04907	115.8375
72.43941	118.2375
76.82654	124.8375
81.21044	126.8375
85.59113	130.6375
89.96862	139.7375
94.34289	135.5375
98.71396	146.3375
103.08183	154.9375
107.4465	156.8375
111.80798	159.8375
116.16626	159.9375
120.52136	170.0375
124.87327	174.7375
129.222	180.0375
133.56755	192.5375
137.90993	206.6375
142.24913	227.7375
146.58517	254.6375
150.91804	296.9375
155.24774	351.0375
159.57429	434.2375
163.89768	551.9375
168.21792	720.7375
172.53501	980.7375
176.84895	1358.7375
181.15975	1897.6375
185.46741	2649.5375
189.77193	3658.1375
194.07331	4874.8375
198.37157	6279.4375
202.6667	7743.3375
206.9587	9192.0375
211.24758	10611.8375
215.53334	12045.8375
219.81599	13586.4375
224.09553	15230.8375
228.37195	17150.0375
232.64527	19221.7375
236.91549	21397.7375
241.18261	23533.3375
245.44663	25531.9375
249.70755	27287.4375
253.96539	28817.0375
258.22014	30162.3375
262.4718	31290.1375
266.72039	32050.9375
270.96589	32529.8375
275.20832	32528.8375
279.44768	32370.8375
283.68397	32106.8375
287.91719	31810.8375
292.14735	31632.3375
296.37445	31696.6375
300.59849	31847.9375
304.81948	32023.6375
309.03742	32106.8375
313.25231	31825.6375
317.46415	31138.2375
321.67296	30239.8375
325.87872	29475.7375
330.08145	29163.8375
334.28114	29143.1375
338.47781	29430.9375
342.67145	29839.7375
346.86207	30389.7375
351.04966	31122.7375
355.23424	31835.5375
359.4158	32567.9375
363.59435	33014.9375
367.76989	33276.8375
371.94243	33466.0375
376.11196	33581.5375
380.27849	33638.3375
384.44203	33689.2375
388.60257	33859.4375
392.76012	34124.1375
396.91468	34572.2375
401.06626	35160.2375
405.21485	35532.7375
409.36047	35349.7375
413.50311	34749.4375
417.64277	34190.6375
421.77947	34052.9375
425.9132	34074.0375
430.04396	34321.9375
434.17176	34514.3375
438.2966	34834.5375
442.41849	35366.4375
446.53742	36219.2375
450.6534	37329.1375
454.76644	38092.6375
458.87653	38412.1375
462.98368	38280.2375
467.08789	37852.7375
471.18916	37223.1375
475.2875	36620.0375
479.38291	36159.4375
483.4754	35827.5375
487.56496	35447.4375
491.6516	34933.7375
495.73531	34681.8375
499.81612	34650.6375
503.89401	34889.4375
507.96899	35096.8375
512.04106	35213.8375
516.11023	35163.6375
520.1765	35017.7375
524.23987	34816.3375
528.30034	34539.8375
532.35792	34177.1375
536.41261	33701.9375
540.46441	33216.2375
544.51333	33184.9375
548.55936	33485.5375
552.60252	34170.0375
556.64279	34883.7375
560.6802	35211.7375
564.71473	35440.6375
568.7464	35937.7375
572.7752	36613.2375
576.80114	37250.5375
580.82422	37789.4375
584.84444	38421.4375
588.86181	38984.9375
592.87633	39603.6375
596.888	40261.7375
600.89682	40881.3375
604.9028	42620.2375
608.90594	46433.7375
612.90624	49759.5375
616.90371	46385.8375
620.89834	38855.1375
624.89015	35843.1375
628.87913	35683.5375
632.86528	35660.4375
636.84862	35356.0375
640.82913	34714.2375
644.80683	33672.8375
648.78172	33007.0375
652.75379	32905.1375
656.72306	33325.5375
660.68952	33881.4375
664.65319	33741.3375
668.61405	33131.8375
672.57211	32903.6375
676.52738	32899.3375
680.47986	32870.1375
684.42955	32660.6375
688.37646	32623.4375
692.32058	32766.2375
696.26192	33143.6375
700.20048	33555.1375
704.13626	33799.7375
708.06928	33673.9375
711.99952	33506.8375
715.927	33439.4375
719.85171	33464.4375
723.77365	33395.5375
727.69284	32967.1375
731.60928	32629.4375
735.52295	32486.7375
739.43388	32488.5375
743.34206	32586.5375
747.24749	32754.9375
751.15017	33112.0375
755.05012	33700.9375
758.94733	34748.5375
762.8418	36609.9375
766.73354	39534.1375
770.62254	42272.3375
774.50882	42818.2375
778.39237	40806.8375
782.27321	37631.9375
786.15132	35122.4375
790.02671	33640.7375
793.89938	33042.9375
797.76935	32769.9375
801.6366	32725.3375
805.50115	32646.5375
809.36299	32389.3375
813.22213	32128.1375
817.07857	31966.4375
820.93231	31878.3375
824.78336	31806.1375
828.63172	31764.5375
832.47738	31853.3375
836.32036	32009.6375
840.16066	32208.4375
843.99827	32337.3375
847.8332	32258.4375
851.66546	32070.3375
855.49504	31997.9375
859.32195	31927.7375
863.1462	31813.4375
866.96777	31673.9375
870.78668	31533.3375
874.60293	31503.2375
878.41652	31563.5375
882.22745	31660.2375
886.03573	31732.6375
889.84136	31709.5375
893.64433	31564.6375
897.44466	31395.8375
901.24235	31365.7375
905.0374	31311.3375
908.8298	31277.7375
912.61957	31372.5375
916.40671	31665.1375
920.19121	32148.1375
923.97308	32646.6375
927.75233	32843.5375
931.52895	32724.9375
935.30295	32312.0375
939.07433	31694.9375
942.84309	31218.2375
946.60924	31080.4375
950.37278	30999.9375
954.13371	30877.6375
957.89203	30667.7375
961.64774	30566.4375
965.40086	30481.4375
969.15137	30381.0375
972.89929	30320.1375
976.64461	30305.9375
980.38733	30354.0375
984.12747	30576.0375
987.86502	30901.9375
991.59999	31381.1375
995.33237	32153.0375
999.06217	33291.1375
1002.78939	34575.3375
1006.51404	35259.5375
1010.23611	35607.2375
1013.95561	35887.5375
1017.67255	35781.9375
1021.38692	35256.9375
1025.09872	35032.4375
1028.80796	35523.4375
1032.51465	36870.6375
1036.21877	38139.0375
1039.92035	38260.9375
1043.61937	37601.3375
1047.31584	36450.0375
1051.00976	35270.0375
1054.70114	34685.5375
1058.38998	34675.8375
1062.07627	35005.5375
1065.76003	35418.3375
1069.44126	36020.3375
1073.11995	36858.7375
1076.79611	37594.1375
1080.46974	37959.3375
1084.14085	37958.5375
1087.80943	37928.7375
1091.47549	37820.1375
1095.13903	37411.8375
1098.80005	36656.3375
1102.45857	35855.6375
1106.11456	35317.4375
1109.76805	35157.7375
1113.41903	35302.5375
1117.06751	35554.5375
1120.71348	35852.6375
1124.35696	36231.8375
1127.99793	36580.1375
1131.63641	36821.3375
1135.2724	36615.0375
1138.90589	36419.2375
1142.5369	36247.9375
1146.16542	36126.2375
1149.79145	36147.7375
1153.415	36431.8375
1157.03607	36972.4375
1160.65467	37840.3375
1164.27079	39432.6375
1167.88443	41485.6375
1171.49561	44168.0375
1175.10432	47703.7375
1178.71056	52088.6375
1182.31434	56238.7375
1185.91565	58325.3375
1189.51451	57956.4375
1193.11091	55622.4375
1196.70485	52705.8375
1200.29634	50076.4375
1203.88538	48268.8375
1207.47197	46992.8375
1211.05612	46042.9375
1214.63782	45428.1375
1218.21708	45011.8375
1221.79391	44790.0375
1225.36829	44709.4375
1228.94024	44310.7375
1232.50976	43586.3375
1236.07685	42819.0375
1239.6415	42446.9375
1243.20374	42447.1375
1246.76355	42652.8375
1250.32093	43351.8375
1253.8759	44401.6375
1257.42845	45782.5375
1260.97859	47060.4375
1264.52631	48358.8375
1268.07163	49720.2375
1271.61453	51278.3375
1275.15503	52996.5375
1278.69312	54697.9375
1282.22882	56154.7375
1285.76211	57203.3375
1289.29301	58365.7375
1292.82151	59878.4375
1296.34761	62020.6375
1299.87133	65256.8375
1303.39266	69332.8375
1306.9116	74243.9375
1310.42815	78945.2375
1313.94233	81861.9375
1317.45412	81948.2375
1320.96354	80118.3375
1324.47058	77833.9375
1327.97525	75876.9375
1331.47754	74458.4375
1334.97747	73749.5375
1338.47502	73585.7375
1341.97022	73403.5375
1345.46305	72747.8375
1348.95352	71772.0375
1352.44163	71369.8375
1355.92738	72724.5375
1359.41078	76204.5375
1362.89183	79416.8375
1366.37053	78098.5375
1369.84688	71638.6375
1373.32088	64084.2375
1376.79254	58859.2375
1380.26186	56549.4375
1383.72883	55974.4375
1387.19347	55663.6375
1390.65578	54930.6375
1394.11575	54395.5375
1397.57339	54715.3375
1401.0287	55660.8375
1404.48168	56746.1375
1407.93234	57182.8375
1411.38068	56791.8375
1414.82669	55523.7375
1418.27039	53598.5375
1421.71177	51516.9375
1425.15083	49773.7375
1428.58758	48769.5375
1432.02203	48898.7375
1435.45416	49890.8375
1438.88399	51173.9375
1442.31151	52443.8375
1445.73673	53344.2375
1449.15965	54122.9375
1452.58027	54516.8375
1455.9986	54615.7375
1459.41463	55014.2375
1462.82837	55909.3375
1466.23982	57287.1375
1469.64898	58524.0375
1473.05586	59245.1375
1476.46045	59351.1375
1479.86276	59118.6375
1483.26279	58529.2375
1486.66054	57916.7375
1490.05602	57838.1375
1493.44922	58021.3375
1496.84016	58331.9375
1500.22882	59344.8375
1503.61521	61087.0375
1506.99934	63430.4375
1510.38121	65559.2375
1513.76081	66250.4375
1517.13816	64919.8375
1520.51324	62144.9375
1523.88607	59574.3375
1527.25665	57853.6375
1530.62498	57049.5375
1533.99105	56576.8375
1537.35488	56205.2375
1540.71647	55747.7375
1544.07581	55043.4375
1547.4329	54189.4375
1550.78776	53344.7375
1554.14038	52736.7375
1557.49077	52480.9375
1560.83892	52261.0375
1564.18484	52239.2375
1567.52853	52420.4375
1570.86999	53028.1375
1574.20922	54191.0375
1577.54624	55399.4375
1580.88103	56011.9375
1584.2136	56387.0375
1587.54395	57375.5375
1590.87208	59183.5375
1594.19801	62250.8375
1597.52172	65717.6375
1600.84321	66845.7375
1604.16251	64020.4375
1607.47959	59138.4375
1610.79447	54137.9375
1614.10715	49536.0375
1617.41763	45798.4375
1620.7259	43229.6375
1624.03199	41905.4375
1627.33587	41934.3375
1630.63757	43140.9375
1633.93707	45775.5375
1637.23439	49977.2375
1640.52951	55545.7375
1643.82246	61578.7375
1647.11321	66009.3375
1650.40179	66559.5375
1653.68819	62192.5375
1656.97241	54506.7375
1660.25446	46972.6375
1663.53433	41320.8375
1666.81203	37707.5375
1670.08756	35366.1375
1673.36092	33944.3375
1676.63211	32954.5375
1679.90115	32237.9375
1683.16801	31721.2375
1686.43272	31380.1375
1689.69527	31069.4375
1692.95567	30866.0375
1696.2139	30767.0375
1699.46999	30672.7375
1702.72392	30594.0375
1705.97571	30526.3375
1709.22535	30413.8375
1712.47284	30354.8375
1715.71819	30345.8375
1718.96139	30189.8375
1722.20246	30141.9375
1725.44139	29987.3375
1728.67818	29805.5375
1731.91284	29699.1375
1735.14537	29469.7375
1738.37576	29360.6375
1741.60403	29274.9375
1744.83017	29143.6375
1748.05418	29131.8375
1751.27607	29056.5375
1754.49584	28981.7375
1757.71349	28968.5375
1760.92903	28928.1375
1764.14244	28954.9375
1767.35375	28953.7375
1770.56294	28873.7375
1773.77002	28858.9375
1776.97499	28849.9375
1780.17785	28774.0375
1783.37861	28733.8375
1786.57727	28663.9375
1789.77382	28618.9375
1792.96828	28586.7375
1796.16064	28555.5375
1799.3509	28473.4375
1802.53907	28475.0375
1805.72514	28360.0375
1808.90913	28307.4375
1812.09102	28264.4375
1815.27083	28259.0375
1818.44856	28149.2375
1821.6242	28094.3375
1824.79776	28102.7375
1827.96924	28123.1375
1831.13864	28058.7375
1834.30597	28072.3375
1837.47122	28128.9375
1840.6344	28080.8375
1843.7955	28070.2375
1846.95454	28077.2375
1850.11151	28079.1375
1853.26642	28089.3375
1856.41926	28132.3375
1859.57004	28107.5375
1862.71876	28039.7375
1865.86542	28042.1375
1869.01003	28009.3375
1872.15258	28043.6375
1875.29308	28068.1375
1878.43152	28043.9375
1881.56792	27998.5375
1884.70227	28041.5375
1887.83457	28041.0375
1890.96482	28025.1375
1894.09304	27999.8375
1897.21921	27996.9375
1900.34335	27977.1375
1903.46544	27942.5375
1906.58551	27962.2375
1909.70353	27912.9375
1912.81953	27873.0375
1915.93349	27857.1375
1919.04543	27786.3375
1922.15534	27768.6375
1925.26322	27706.6375
1928.36908	27610.6375
1931.47292	27574.1375
1934.57473	27499.3375
1937.67453	27424.5375
1940.77232	27359.9375
1943.86808	27232.8375
1946.96184	27175.3375
1950.05358	27108.2375
1953.14331	27043.5375
1956.23103	26947.1375
1959.31675	26903.6375
1962.40046	26792.0375
1965.48217	26752.9375
1968.56188	26660.1375
1971.63959	26594.0375
1974.7153	26473.2375
1977.78901	26435.5375
1980.86073	26348.7375
1983.93046	26311.4375
1986.99819	26213.3375
1990.06394	26199.5375
1993.1277	26138.1375
1996.18947	26002.9375
1999.24925	25932.2375
2002.30706	25806.8375
2005.36288	25781.9375
2008.41672	25764.5375
2011.46859	25681.3375
2014.51848	25624.2375
2017.56639	25583.4375
2020.61233	25542.1375
2023.6563	25485.9375
2026.6983	25460.7375
2029.73833	25407.8375
2032.7764	25396.9375
2035.8125	25338.0375
2038.84664	25265.5375
2041.87881	25256.1375
2044.90903	25244.1375
2047.93729	25233.0375
2050.96359	25196.9375
2053.98794	25166.5375
2057.01034	25196.6375
2060.03078	25153.8375
2063.04927	25119.7375
2066.06582	25090.7375
2069.08042	25095.2375
2072.09307	25063.8375
2075.10378	25064.6375
2078.11255	25008.0375
2081.11938	25004.7375
2084.12426	25007.7375
2087.12722	25038.5375
2090.12824	25003.3375
2093.12732	25016.3375
2096.12447	25009.0375
2099.11969	24983.3375
2102.11299	24993.0375
2105.10435	25029.5375
2108.09379	25060.4375
2111.08131	25078.3375
2114.0669	25113.6375
2117.05057	25064.3375
2120.03233	25083.8375
2123.01216	25118.3375
2125.99008	25158.0375
2128.96609	25157.0375
2131.94018	25168.5375
2134.91236	25160.9375
2137.88263	25231.4375
2140.851	25189.0375
2143.81746	25251.9375
2146.78201	25243.6375
2149.74466	25251.8375
2152.7054	25316.5375
2155.66425	25300.2375
2158.6212	25313.1375
2161.57625	25302.6375
2164.52941	25282.0375
2167.48067	25279.2375
2170.43004	25295.2375
2173.37752	25305.5375
2176.32311	25286.3375
2179.26681	25262.3375
2182.20863	25242.6375
2185.14856	25231.9375
2188.08661	25288.1375
2191.02278	25297.6375
2193.95707	25294.1375
2196.88948	25307.8375
2199.82001	25303.4375
2202.74867	25270.6375
2205.67545	25277.2375
2208.60037	25279.4375
2211.52341	25271.2375
2214.44458	25298.4375
2217.36388	25269.0375
2220.28132	25247.3375
2223.1969	25194.4375
2226.11061	25216.7375
2229.02246	25125.8375
2231.93245	25057.0375
2234.84058	24952.7375
2237.74686	24949.4375
2240.65128	24954.7375
2243.55385	24897.7375
2246.45456	24892.6375
2249.35343	24829.5375
2252.25044	24787.9375
2255.14561	24750.1375
2258.03893	24753.1375
2260.93041	24744.1375
2263.82004	24678.2375
2266.70783	24634.4375
2269.59378	24579.6375
2272.4779	24506.7375
2275.36017	24449.8375
2278.24061	24391.2375
2281.11922	24352.9375
2283.996	24335.7375
2286.87094	24331.9375
2289.74405	24265.7375
2292.61534	24302.1375
2295.4848	24261.5375
2298.35243	24266.4375
2301.21824	24292.1375
2304.08223	24306.0375
2306.94439	24305.0375
2309.80474	24345.2375
2312.66327	24397.6375
2315.51999	24368.7375
2318.37489	24369.9375
2321.22797	24375.0375
2324.07925	24319.3375
2326.92871	24346.9375
2329.77637	24286.4375
2332.62222	24342.0375
2335.46626	24325.3375
2338.3085	24303.7375
2341.14893	24352.2375
2343.98756	24363.5375
2346.8244	24406.9375
2349.65943	24422.0375
2352.49267	24372.4375
2355.32411	24375.6375
2358.15376	24317.4375
2360.98161	24326.0375
2363.80768	24284.5375
2366.63195	24286.5375
2369.45444	24231.6375
2372.27514	24152.5375
2375.09405	24114.0375
2377.91118	24072.4375
2380.72652	24037.8375
2383.54009	24000.6375
2386.35187	23955.7375
2389.16188	23944.4375
2391.97011	23918.2375
2394.77657	23870.3375
2397.58125	23825.4375
2400.38416	23820.7375
2403.18529	23777.5375
2405.98466	23743.9375
2408.78226	23675.0375
2411.57809	23644.3375
2414.37216	23578.2375
2417.16446	23630.0375
2419.955	23554.0375
2422.74378	23519.1375
2425.5308	23484.2375
2428.31606	23473.6375
2431.09956	23453.7375
2433.88131	23462.6375
2436.6613	23485.9375
2439.43954	23473.5375
2442.21603	23436.4375
2444.99077	23433.2375
2447.76377	23441.8375
2450.53501	23444.7375
2453.30451	23443.0375
2456.07226	23423.3375
2458.83827	23451.9375
2461.60254	23419.0375
2464.36507	23402.6375
2467.12586	23407.6375
2469.88492	23402.1375
2472.64224	23423.7375
2475.39782	23481.8375
2478.15167	23496.0375
2480.90379	23485.9375
2483.65417	23522.1375
2486.40283	23523.1375
2489.14976	23509.1375
2491.89497	23528.8375
2494.63845	23603.3375
2497.3802	23597.4375
2500.12024	23546.0375
2502.85855	23609.6375
2505.59514	23606.2375
2508.33002	23572.5375
2511.06318	23498.1375
2513.79462	23502.3375
2516.52435	23471.3375
2519.25237	23489.1375
2521.97867	23443.6375
2524.70327	23434.1375
2527.42616	23422.0375
2530.14734	23427.8375
2532.86681	23393.6375
2535.58458	23387.9375
2538.30065	23380.5375
2541.01501	23371.9375
2543.72768	23382.4375
2546.43864	23384.9375
2549.14791	23320.1375
2551.85548	23329.5375
2554.56136	23305.0375
2557.26554	23287.3375
2559.96803	23259.0375
2562.66883	23240.6375
2565.36794	23263.2375
2568.06536	23257.6375
2570.7611	23217.7375
2573.45514	23192.7375
2576.14751	23242.6375
2578.83819	23216.0375
2581.52719	23219.7375
2584.21451	23248.5375
2586.90015	23199.4375
2589.58411	23233.4375
2592.2664	23178.1375
2594.94701	23201.3375
2597.62594	23163.9375
2600.30321	23138.0375
2602.9788	23173.3375
2605.65273	23127.9375
2608.32498	23114.8375
2610.99557	23116.1375
2613.66449	23129.5375
2616.33175	23112.6375
2618.99734	23129.0375
2621.66128	23144.1375
2624.32355	23171.9375
2626.98416	23178.7375
2629.64311	23146.2375
2632.30041	23164.4375
2634.95605	23147.4375
2637.61004	23156.9375
2640.26238	23148.4375
2642.91306	23108.8375
2645.56209	23074.2375
2648.20948	23093.9375
2650.85521	23017.8375
2653.4993	23039.6375
2656.14175	23054.5375
2658.78255	23043.9375
2661.42171	23053.5375
2664.05923	23076.6375
2666.6951	23056.9375
2669.32934	23092.1375
2671.96194	23105.9375
2674.59291	23093.5375
2677.22224	23091.0375
2679.84993	23117.6375
2682.476	23020.2375
2685.10043	23075.7375
2687.72324	23002.2375
2690.34441	23011.1375
2692.96396	23004.1375
2695.58188	22987.3375
2698.19818	22955.8375
2700.81285	22983.9375
2703.4259	22981.8375
2706.03733	23083.8375
2708.64714	23058.0375
2711.25533	23087.6375
2713.86191	23063.2375
2716.46687	23076.5375
2719.07021	23081.6375
2721.67194	23092.1375
2724.27206	23077.4375
2726.87057	23064.8375
2729.46747	23104.4375
2732.06276	23157.7375
2734.65644	23102.1375
2737.24852	23131.7375
2739.83899	23117.5375
2742.42786	23152.7375
2745.01513	23084.1375
2747.60079	23063.4375
2750.18486	23088.3375
2752.76733	23068.6375
2755.3482	23095.5375
2757.92747	23097.5375
2760.50515	23057.5375
2763.08123	23055.7375
2765.65573	23041.7375
2768.22863	23010.1375
2770.79994	22979.3375
2773.36967	23004.8375
2775.9378	22972.5375
2778.50435	22995.7375
2781.06932	22953.8375
2783.6327	23015.2375
2786.1945	22981.4375
2788.75471	22966.5375
2791.31335	22925.4375
2793.87041	22932.5375
2796.42589	22831.7375
2798.97979	22828.3375
2801.53212	22796.0375
2804.08288	22787.8375
2806.63206	22699.9375
2809.17967	22656.2375
2811.72571	22656.3375
2814.27018	22628.2375
2816.81308	22585.5375
2819.35442	22591.6375
2821.89419	22552.5375
2824.43239	22519.1375
2826.96904	22538.1375
2829.50412	22553.2375
2832.03763	22455.6375
2834.56959	22487.6375
2837.1	22400.2375
2839.62884	22409.5375
2842.15613	22374.3375
2844.68186	22377.4375
2847.20604	22342.7375
2849.72867	22319.5375
2852.24974	22315.5375
2854.76927	22303.4375
2857.28724	22300.5375
2859.80367	22255.8375
2862.31855	22274.9375
2864.83189	22259.5375
2867.34368	22192.8375
2869.85393	22242.1375
2872.36264	22209.6375
2874.8698	22183.1375
2877.37543	22250.9375
2879.87952	22241.2375
2882.38207	22241.9375
2884.88308	22254.8375
2887.38256	22238.3375
2889.88051	22259.1375
2892.37692	22293.6375
2894.8718	22244.9375
2897.36515	22286.0375
2899.85698	22267.5375
2902.34727	22346.8375
2904.83604	22373.2375
2907.32328	22426.9375
2909.809	22423.5375
2912.29319	22518.0375
2914.77587	22486.8375
2917.25702	22490.2375
2919.73665	22447.3375
2922.21476	22519.0375
2924.69136	22419.3375
2927.16644	22442.6375
2929.64	22339.1375
2932.11205	22306.4375
2934.58258	22255.8375
2937.05161	22308.2375
2939.51912	22335.9375
2941.98513	22312.3375
2944.44962	22235.4375
2946.91261	22177.1375
2949.37409	22175.8375
2951.83407	22255.5375
2954.29254	22192.9375
2956.74951	22151.4375
2959.20498	22154.0375
2961.65895	22145.3375
2964.11142	22149.0375
2966.56239	22069.8375
2969.01186	22068.2375
2971.45984	21990.5375
2973.90632	21974.7375
2976.35131	21916.0375
2978.7948	21912.4375
2981.23681	21861.4375
2983.67732	21833.4375
2986.11635	21787.3375
2988.55388	21711.9375
2990.98993	21651.6375
2993.4245	21621.3375
2995.85758	21558.8375
2998.28917	21512.9375
3000.71928	21483.6375
3003.14791	21486.6375
3005.57506	21432.5375
3008.00073	21401.8375
3010.42493	21411.9375
3012.84764	21354.0375
3015.26888	21367.6375
3017.68865	21293.2375
3020.10694	21292.6375
3022.52376	21241.2375
3024.9391	21206.2375
3027.35298	21188.4375
3029.76539	21208.4375
3032.17632	21187.2375
3034.5858	21155.9375
3036.9938	21143.8375
3039.40034	21095.3375
3041.80542	21065.3375
3044.20903	21020.0375
3046.61118	21001.7375
3049.01187	20989.2375
3051.4111	20930.5375
3053.80888	20910.8375
3056.20519	20882.3375
3058.60005	20804.7375
3060.99345	20830.0375
3063.3854	20762.5375
3065.7759	20690.0375
3068.16494	20688.4375
3070.55254	20640.1375
3072.93868	20595.4375
3075.32338	20543.9375
3077.70662	20497.6375
3080.08842	20456.1375
3082.46878	20463.6375
3084.84769	20421.5375
3087.22515	20420.2375
3089.60118	20394.2375
3091.97576	20391.1375
3094.3489	20395.0375
3096.72061	20403.7375
3099.09087	20389.9375
3101.4597	20335.7375
3103.82709	20348.2375
3106.19305	20295.0375
3108.55757	20310.3375
3110.92066	20206.3375
3113.28232	20192.8375
3115.64255	20162.0375
3118.00134	20131.4375
3120.35871	20111.6375
3122.71466	20104.0375
3125.06917	20079.2375
3127.42226	20023.7375
3129.77393	20062.7375
3132.12417	20013.1375
3134.47299	20001.7375
3136.82039	19994.5375
3139.16636	20009.1375
3141.51092	19986.5375
3143.85406	19970.7375
3146.19579	19999.4375
3148.53609	19993.2375
3150.87499	20009.4375
3153.21246	19992.9375
3155.54853	20008.3375
3157.88318	19979.4375
3160.21642	20006.1375
3162.54826	19983.1375
3164.87868	19937.1375
3167.2077	19908.5375
3169.5353	19923.1375
3171.86151	19906.3375
3174.18631	19885.1375
3176.5097	19858.6375
3178.83169	19854.7375
3181.15228	19864.0375
3183.47147	19841.1375
3185.78926	19832.2375
3188.10565	19816.5375
3190.42065	19811.8375
3192.73424	19783.4375
3195.04645	19798.8375
3197.35725	19806.0375
3199.66667	19796.9375
3201.97469	19816.8375
3204.28132	19797.9375
3206.58656	19840.9375
3208.8904	19826.9375
3211.19287	19844.9375
3213.49394	19775.7375
3215.79363	19798.7375
3218.09193	19818.8375
3220.38884	19823.2375
3222.68438	19896.8375
3224.97853	19841.1375
3227.2713	19835.7375
3229.56269	19753.3375
3231.8527	19797.7375
3234.14133	19750.0375
3236.42858	19690.1375
3238.71446	19740.5375
3240.99896	19633.9375
3243.28209	19630.5375
3245.56384	19632.9375
3247.84423	19617.0375
3250.12324	19619.3375
3252.40088	19560.0375
3254.67715	19565.4375
3256.95205	19555.9375
3259.22558	19498.9375
3261.49775	19462.6375
3263.76855	19487.7375
3266.03799	19417.6375
3268.30606	19419.6375
3270.57277	19395.4375
3272.83812	19385.9375
3275.10211	19344.0375
3277.36474	19325.9375
3279.62601	19353.4375
3281.88593	19350.7375
3284.14448	19341.2375
3286.40168	19318.1375
3288.65753	19290.7375
3290.91202	19276.5375
3293.16516	19213.0375
3295.41695	19208.1375
3297.66738	19085.2375
3299.91647	19024.6375
3302.16421	18901.9375
3304.4106	18846.8375
3306.65564	18740.8375
3308.89933	18634.4375
3311.14169	18535.5375
3313.38269	18365.4375
3315.62236	18251.8375
3317.86068	18110.2375
3320.09766	17938.2375
3322.3333	17787.9375
3324.5676	17806.9375
3326.80056	17519.2375
3329.03219	17449.7375
3331.26248	4.6375
3333.49143	-1.6625
3335.71905	0.7375
