Data from AgNP_FTO_APTES_CRN_10uM_R6G_10uM_NaF_0.1M_Addition_RamanShift__3__16-18-27-955.txt Node

Date: Wed Dec 15 16:18:27 GMT 2021
User: TCL
Spectrometer: QEP01345
Trigger mode: 4
Integration Time (sec): 7.000000E0
Scans to average: 10
Electric dark correction enabled: true
Nonlinearity correction enabled: false
Boxcar width: 0
XAxis mode: Raman Shifts
Number of Pixels in Spectrum: 1044
>>>>>Begin Spectral Data<<<<<
46.04893	-0.325
50.45542	-2.225
54.85868	-1.625
59.25871	-0.425
63.6555	82.075
68.04907	87.375
72.43941	88.475
76.82654	94.475
81.21044	100.975
85.59113	106.275
89.96862	110.975
94.34289	106.175
98.71396	114.775
103.08183	119.575
107.4465	123.975
111.80798	123.675
116.16626	128.375
120.52136	133.375
124.87327	137.775
129.222	145.275
133.56755	149.875
137.90993	164.775
142.24913	180.575
146.58517	199.975
150.91804	226.275
155.24774	275.075
159.57429	339.775
163.89768	431.675
168.21792	573.875
172.53501	776.575
176.84895	1072.575
181.15975	1504.475
185.46741	2108.175
189.77193	2911.675
194.07331	3883.875
198.37157	4985.975
202.6667	6172.275
206.9587	7334.375
211.24758	8485.975
215.53334	9671.275
219.81599	10881.975
224.09553	12227.175
228.37195	13738.375
232.64527	15383.175
236.91549	17102.275
241.18261	18834.275
245.44663	20462.675
249.70755	21862.675
253.96539	23057.375
258.22014	24107.875
262.4718	24928.875
266.72039	25449.975
270.96589	25716.175
275.20832	25718.975
279.44768	25485.975
283.68397	25155.375
287.91719	24942.475
292.14735	24815.775
296.37445	24856.475
300.59849	24956.075
304.81948	25142.375
309.03742	25208.475
313.25231	25062.375
317.46415	24629.575
321.67296	23958.775
325.87872	23384.875
330.08145	23061.075
334.28114	22970.275
338.47781	23154.375
342.67145	23473.775
346.86207	23857.275
351.04966	24375.675
355.23424	24895.575
359.4158	25292.475
363.59435	25507.175
367.76989	25582.575
371.94243	25605.575
376.11196	25598.775
380.27849	25585.775
384.44203	25670.675
388.60257	25851.175
392.76012	26100.175
396.91468	26381.475
401.06626	26799.875
405.21485	27079.475
409.36047	26988.275
413.50311	26625.575
417.64277	26386.475
421.77947	26393.475
425.9132	26571.175
430.04396	26666.975
434.17176	26700.975
438.2966	26816.375
442.41849	27117.975
446.53742	27756.975
450.6534	28476.275
454.76644	28950.675
458.87653	29004.275
462.98368	28868.075
467.08789	28526.175
471.18916	28140.275
475.2875	27829.675
479.38291	27550.075
483.4754	27314.675
487.56496	26961.075
491.6516	26587.775
495.73531	26354.375
499.81612	26279.375
503.89401	26524.475
507.96899	26675.075
512.04106	26747.075
516.11023	26712.775
520.1765	26684.075
524.23987	26621.175
528.30034	26493.375
532.35792	26145.875
536.41261	25722.875
540.46441	25220.175
544.51333	25129.775
548.55936	25420.975
552.60252	25957.575
556.64279	26607.375
560.6802	27016.975
564.71473	27198.875
568.7464	27486.575
572.7752	28095.675
576.80114	28872.675
580.82422	29790.475
584.84444	30915.675
588.86181	32120.075
592.87633	32810.575
596.888	32543.875
600.89682	31376.875
604.9028	31353.875
608.90594	33432.575
612.90624	35812.175
616.90371	33643.975
620.89834	28313.775
624.89015	25985.275
628.87913	25635.875
632.86528	25748.975
636.84862	25707.775
640.82913	25302.375
644.80683	24695.475
648.78172	24288.975
652.75379	24273.275
656.72306	24508.275
660.68952	24807.775
664.65319	24637.775
668.61405	24214.275
672.57211	24156.575
676.52738	24213.875
680.47986	24169.275
684.42955	24004.875
688.37646	23937.875
692.32058	24068.475
696.26192	24387.175
700.20048	24784.775
704.13626	25077.475
708.06928	25084.475
711.99952	25069.575
715.927	25084.475
719.85171	25132.475
723.77365	24955.975
727.69284	24583.675
731.60928	24187.675
735.52295	24092.975
739.43388	24116.275
743.34206	24177.775
747.24749	24333.575
751.15017	24537.475
755.05012	24961.575
758.94733	25764.075
762.8418	27134.875
766.73354	29248.975
770.62254	31200.875
774.50882	31389.975
778.39237	29946.675
782.27321	27901.075
786.15132	26173.775
790.02671	25086.975
793.89938	24526.075
797.76935	24338.275
801.6366	24259.575
805.50115	24141.475
809.36299	24000.775
813.22213	23846.375
817.07857	23689.075
820.93231	23616.575
824.78336	23497.175
828.63172	23465.275
832.47738	23512.475
836.32036	23652.075
840.16066	23796.675
843.99827	23825.275
847.8332	23676.975
851.66546	23532.975
855.49504	23442.275
859.32195	23424.275
863.1462	23364.475
866.96777	23301.975
870.78668	23227.975
874.60293	23245.175
878.41652	23262.375
882.22745	23348.275
886.03573	23432.275
889.84136	23507.875
893.64433	23442.075
897.44466	23338.075
901.24235	23303.875
905.0374	23181.375
908.8298	23137.875
912.61957	23205.475
916.40671	23458.375
920.19121	23739.775
923.97308	24004.175
927.75233	24181.675
931.52895	24093.075
935.30295	23740.375
939.07433	23253.075
942.84309	22887.175
946.60924	22709.775
950.37278	22626.275
954.13371	22551.175
957.89203	22460.375
961.64774	22415.875
965.40086	22416.875
969.15137	22371.375
972.89929	22320.175
976.64461	22255.675
980.38733	22252.275
984.12747	22373.575
987.86502	22541.975
991.59999	22778.575
995.33237	23201.775
999.06217	23824.175
1002.78939	24518.575
1006.51404	25042.575
1010.23611	25467.375
1013.95561	25789.775
1017.67255	25701.275
1021.38692	25307.675
1025.09872	24934.275
1028.80796	24935.275
1032.51465	25471.275
1036.21877	26171.275
1039.92035	26373.275
1043.61937	26244.575
1047.31584	25885.075
1051.00976	25460.075
1054.70114	25347.475
1058.38998	25582.175
1062.07627	26065.075
1065.76003	26771.575
1069.44126	27815.075
1073.11995	28926.975
1076.79611	29615.675
1080.46974	29499.075
1084.14085	28936.375
1087.80943	28277.075
1091.47549	27822.775
1095.13903	27362.775
1098.80005	26758.375
1102.45857	26000.975
1106.11456	25393.275
1109.76805	25168.475
1113.41903	25104.575
1117.06751	25211.175
1120.71348	25513.275
1124.35696	25781.275
1127.99793	26242.775
1131.63641	26500.675
1135.2724	26374.975
1138.90589	26243.575
1142.5369	26137.275
1146.16542	26126.975
1149.79145	26228.275
1153.415	26404.375
1157.03607	26719.375
1160.65467	27510.375
1164.27079	28825.875
1167.88443	30550.075
1171.49561	32599.775
1175.10432	35201.375
1178.71056	38495.675
1182.31434	41512.275
1185.91565	42822.675
1189.51451	42249.275
1193.11091	40659.675
1196.70485	38784.075
1200.29634	36843.975
1203.88538	35442.575
1207.47197	34705.475
1211.05612	34048.775
1214.63782	33353.775
1218.21708	32656.275
1221.79391	31957.475
1225.36829	31517.075
1228.94024	31123.175
1232.50976	30629.875
1236.07685	30148.275
1239.6415	29879.075
1243.20374	29836.675
1246.76355	30022.075
1250.32093	30531.975
1253.8759	31282.175
1257.42845	32254.775
1260.97859	33296.075
1264.52631	34338.075
1268.07163	35473.875
1271.61453	36603.375
1275.15503	37756.275
1278.69312	38816.275
1282.22882	39799.775
1285.76211	40948.275
1289.29301	42307.075
1292.82151	44051.675
1296.34761	46186.375
1299.87133	48903.975
1303.39266	52113.075
1306.9116	55247.475
1310.42815	57915.975
1313.94233	59142.375
1317.45412	58652.875
1320.96354	57154.975
1324.47058	55875.975
1327.97525	54897.475
1331.47754	54132.075
1334.97747	53575.075
1338.47502	53034.175
1341.97022	52389.075
1345.46305	51766.075
1348.95352	51466.675
1352.44163	51768.375
1355.92738	53224.075
1359.41078	55809.275
1362.89183	57924.775
1366.37053	57053.275
1369.84688	52572.975
1373.32088	46956.875
1376.79254	42882.975
1380.26186	41141.675
1383.72883	40658.475
1387.19347	40191.975
1390.65578	39531.075
1394.11575	39237.575
1397.57339	39509.375
1401.0287	40028.475
1404.48168	40433.875
1407.93234	40395.575
1411.38068	39713.475
1414.82669	38567.075
1418.27039	37097.175
1421.71177	35638.675
1425.15083	34480.075
1428.58758	33901.275
1432.02203	34265.075
1435.45416	35174.075
1438.88399	36183.975
1442.31151	36866.075
1445.73673	37257.175
1449.15965	37557.175
1452.58027	37706.075
1455.9986	37690.775
1459.41463	37930.075
1462.82837	38563.675
1466.23982	39373.275
1469.64898	40132.275
1473.05586	40524.575
1476.46045	40680.075
1479.86276	40511.475
1483.26279	40270.775
1486.66054	40212.875
1490.05602	40625.675
1493.44922	41213.775
1496.84016	42026.675
1500.22882	43230.975
1503.61521	44946.275
1506.99934	46834.875
1510.38121	48139.475
1513.76081	48162.075
1517.13816	46610.975
1520.51324	44415.775
1523.88607	42586.075
1527.25665	41598.375
1530.62498	41134.475
1533.99105	40916.875
1537.35488	40429.375
1540.71647	39679.275
1544.07581	38702.075
1547.4329	37775.675
1550.78776	36906.375
1554.14038	36335.275
1557.49077	36091.575
1560.83892	35916.975
1564.18484	36147.375
1567.52853	36681.275
1570.86999	37667.975
1574.20922	39088.875
1577.54624	40781.975
1580.88103	41918.475
1584.2136	42341.475
1587.54395	42530.375
1590.87208	42873.475
1594.19801	44268.175
1597.52172	46154.375
1600.84321	46668.975
1604.16251	44595.075
1607.47959	41037.475
1610.79447	37242.475
1614.10715	33809.175
1617.41763	31159.575
1620.7259	29375.875
1624.03199	28493.675
1627.33587	28525.275
1630.63757	29456.975
1633.93707	31319.875
1637.23439	34453.675
1640.52951	39049.175
1643.82246	44400.975
1647.11321	48702.075
1650.40179	49520.975
1653.68819	46017.675
1656.97241	39903.175
1660.25446	33927.075
1663.53433	29528.475
1666.81203	26685.175
1670.08756	24905.375
1673.36092	23776.575
1676.63211	23046.375
1679.90115	22543.575
1683.16801	22147.475
1686.43272	21939.775
1689.69527	21740.475
1692.95567	21564.775
1696.2139	21489.675
1699.46999	21451.975
1702.72392	21361.375
1705.97571	21345.875
1709.22535	21277.875
1712.47284	21197.575
1715.71819	21139.575
1718.96139	21093.175
1722.20246	21039.975
1725.44139	20906.875
1728.67818	20812.875
1731.91284	20687.775
1735.14537	20592.975
1738.37576	20520.875
1741.60403	20438.175
1744.83017	20379.375
1748.05418	20329.475
1751.27607	20343.575
1754.49584	20271.575
1757.71349	20288.575
1760.92903	20253.275
1764.14244	20218.075
1767.35375	20236.275
1770.56294	20175.275
1773.77002	20156.375
1776.97499	20103.975
1780.17785	20063.275
1783.37861	20045.375
1786.57727	19991.275
1789.77382	19907.075
1792.96828	19901.675
1796.16064	19843.375
1799.3509	19843.875
1802.53907	19786.075
1805.72514	19739.275
1808.90913	19663.175
1812.09102	19618.175
1815.27083	19589.475
1818.44856	19576.175
1821.6242	19579.175
1824.79776	19536.675
1827.96924	19589.975
1831.13864	19601.975
1834.30597	19616.875
1837.47122	19590.575
1840.6344	19596.775
1843.7955	19616.375
1846.95454	19569.875
1850.11151	19594.975
1853.26642	19601.575
1856.41926	19613.975
1859.57004	19572.475
1862.71876	19555.875
1865.86542	19549.675
1869.01003	19514.475
1872.15258	19521.475
1875.29308	19470.275
1878.43152	19402.175
1881.56792	19382.075
1884.70227	19386.975
1887.83457	19362.575
1890.96482	19319.675
1894.09304	19281.375
1897.21921	19277.275
1900.34335	19278.975
1903.46544	19236.075
1906.58551	19216.775
1909.70353	19170.875
1912.81953	19135.275
1915.93349	19095.675
1919.04543	19044.575
1922.15534	18992.675
1925.26322	18976.075
1928.36908	18928.175
1931.47292	18892.875
1934.57473	18816.375
1937.67453	18788.275
1940.77232	18735.975
1943.86808	18711.775
1946.96184	18626.275
1950.05358	18589.075
1953.14331	18582.075
1956.23103	18501.175
1959.31675	18493.675
1962.40046	18439.375
1965.48217	18399.775
1968.56188	18310.175
1971.63959	18284.075
1974.7153	18177.675
1977.78901	18153.075
1980.86073	18121.875
1983.93046	18055.175
1986.99819	17994.575
1990.06394	17984.875
1993.1277	17896.275
1996.18947	17846.875
1999.24925	17783.575
2002.30706	17759.475
2005.36288	17696.175
2008.41672	17649.375
2011.46859	17596.575
2014.51848	17537.575
2017.56639	17543.575
2020.61233	17481.975
2023.6563	17463.675
2026.6983	17428.175
2029.73833	17435.575
2032.7764	17372.975
2035.8125	17384.575
2038.84664	17315.775
2041.87881	17292.475
2044.90903	17294.875
2047.93729	17229.175
2050.96359	17227.075
2053.98794	17214.575
2057.01034	17224.375
2060.03078	17189.875
2063.04927	17153.275
2066.06582	17165.575
2069.08042	17162.875
2072.09307	17107.675
2075.10378	17103.675
2078.11255	17088.075
2081.11938	17121.175
2084.12426	17133.575
2087.12722	17103.375
2090.12824	17097.375
2093.12732	17114.175
2096.12447	17121.275
2099.11969	17115.475
2102.11299	17141.175
2105.10435	17156.775
2108.09379	17153.175
2111.08131	17181.675
2114.0669	17183.275
2117.05057	17209.275
2120.03233	17213.775
2123.01216	17225.875
2125.99008	17235.175
2128.96609	17263.875
2131.94018	17287.475
2134.91236	17299.175
2137.88263	17287.375
2140.851	17268.775
2143.81746	17293.075
2146.78201	17307.175
2149.74466	17320.475
2152.7054	17339.875
2155.66425	17305.375
2158.6212	17345.875
2161.57625	17303.575
2164.52941	17315.675
2167.48067	17316.375
2170.43004	17298.175
2173.37752	17304.275
2176.32311	17321.775
2179.26681	17271.175
2182.20863	17317.775
2185.14856	17306.575
2188.08661	17290.175
2191.02278	17307.275
2193.95707	17293.175
2196.88948	17295.575
2199.82001	17279.875
2202.74867	17295.675
2205.67545	17275.175
2208.60037	17284.875
2211.52341	17251.575
2214.44458	17236.375
2217.36388	17219.875
2220.28132	17199.775
2223.1969	17181.375
2226.11061	17159.675
2229.02246	17141.075
2231.93245	17118.675
2234.84058	17066.275
2237.74686	17054.475
2240.65128	17059.175
2243.55385	17049.875
2246.45456	16933.275
2249.35343	16936.075
2252.25044	16941.275
2255.14561	16880.275
2258.03893	16886.375
2260.93041	16875.175
2263.82004	16834.775
2266.70783	16789.775
2269.59378	16769.775
2272.4779	16730.175
2275.36017	16705.275
2278.24061	16643.275
2281.11922	16627.575
2283.996	16603.675
2286.87094	16618.675
2289.74405	16543.375
2292.61534	16537.175
2295.4848	16540.475
2298.35243	16561.575
2301.21824	16573.775
2304.08223	16549.175
2306.94439	16567.975
2309.80474	16578.275
2312.66327	16576.475
2315.51999	16537.375
2318.37489	16571.675
2321.22797	16545.075
2324.07925	16527.275
2326.92871	16504.575
2329.77637	16520.675
2332.62222	16485.275
2335.46626	16501.675
2338.3085	16478.675
2341.14893	16499.175
2343.98756	16495.675
2346.8244	16477.975
2349.65943	16451.875
2352.49267	16444.675
2355.32411	16473.175
2358.15376	16463.575
2360.98161	16445.275
2363.80768	16469.475
2366.63195	16428.875
2369.45444	16352.775
2372.27514	16375.175
2375.09405	16372.975
2377.91118	16274.575
2380.72652	16311.375
2383.54009	16266.775
2386.35187	16281.475
2389.16188	16194.675
2391.97011	16187.475
2394.77657	16203.475
2397.58125	16176.975
2400.38416	16132.075
2403.18529	16083.575
2405.98466	16083.875
2408.78226	16036.175
2411.57809	16048.575
2414.37216	16023.175
2417.16446	16019.775
2419.955	15974.975
2422.74378	16006.575
2425.5308	15946.375
2428.31606	15942.175
2431.09956	15924.675
2433.88131	15940.375
2436.6613	15964.575
2439.43954	15953.075
2442.21603	15943.675
2444.99077	15935.075
2447.76377	15940.175
2450.53501	15930.675
2453.30451	15929.675
2456.07226	15898.875
2458.83827	15892.875
2461.60254	15924.175
2464.36507	15916.275
2467.12586	15891.875
2469.88492	15937.475
2472.64224	15940.875
2475.39782	15908.775
2478.15167	15933.775
2480.90379	15933.475
2483.65417	15912.275
2486.40283	15931.775
2489.14976	15952.375
2491.89497	15957.975
2494.63845	15994.375
2497.3802	15962.075
2500.12024	15955.475
2502.85855	15931.775
2505.59514	15941.275
2508.33002	15948.075
2511.06318	15893.575
2513.79462	15841.175
2516.52435	15879.375
2519.25237	15873.675
2521.97867	15835.375
2524.70327	15871.275
2527.42616	15840.375
2530.14734	15864.875
2532.86681	15825.375
2535.58458	15833.875
2538.30065	15756.075
2541.01501	15777.575
2543.72768	15804.675
2546.43864	15787.975
2549.14791	15759.175
2551.85548	15763.275
2554.56136	15744.375
2557.26554	15713.175
2559.96803	15707.775
2562.66883	15723.975
2565.36794	15713.775
2568.06536	15747.175
2570.7611	15706.275
2573.45514	15681.575
2576.14751	15695.575
2578.83819	15648.875
2581.52719	15691.475
2584.21451	15651.775
2586.90015	15654.275
2589.58411	15612.875
2592.2664	15619.575
2594.94701	15593.875
2597.62594	15599.975
2600.30321	15565.675
2602.9788	15571.775
2605.65273	15565.675
2608.32498	15556.775
2610.99557	15539.975
2613.66449	15520.875
2616.33175	15509.375
2618.99734	15509.575
2621.66128	15522.575
2624.32355	15517.375
2626.98416	15520.175
2629.64311	15507.675
2632.30041	15490.875
2634.95605	15483.175
2637.61004	15466.775
2640.26238	15448.075
2642.91306	15420.975
2645.56209	15386.875
2648.20948	15437.875
2650.85521	15421.175
2653.4993	15433.675
2656.14175	15436.275
2658.78255	15429.075
2661.42171	15464.775
2664.05923	15467.875
2666.6951	15456.675
2669.32934	15484.175
2671.96194	15438.575
2674.59291	15442.675
2677.22224	15458.275
2679.84993	15456.575
2682.476	15404.375
2685.10043	15432.775
2687.72324	15432.075
2690.34441	15424.175
2692.96396	15441.175
2695.58188	15431.875
2698.19818	15403.575
2700.81285	15455.575
2703.4259	15436.375
2706.03733	15573.975
2708.64714	15517.875
2711.25533	15508.875
2713.86191	15497.975
2716.46687	15522.675
2719.07021	15496.075
2721.67194	15528.575
2724.27206	15503.175
2726.87057	15537.575
2729.46747	15546.875
2732.06276	15552.075
2734.65644	15528.175
2737.24852	15552.275
2739.83899	15511.275
2742.42786	15535.575
2745.01513	15490.375
2747.60079	15501.975
2750.18486	15482.575
2752.76733	15529.775
2755.3482	15556.375
2757.92747	15534.075
2760.50515	15484.875
2763.08123	15488.775
2765.65573	15480.275
2768.22863	15490.875
2770.79994	15470.175
2773.36967	15452.375
2775.9378	15477.775
2778.50435	15440.275
2781.06932	15415.975
2783.6327	15438.875
2786.1945	15430.875
2788.75471	15401.475
2791.31335	15344.975
2793.87041	15378.575
2796.42589	15314.275
2798.97979	15363.975
2801.53212	15324.975
2804.08288	15292.875
2806.63206	15282.675
2809.17967	15224.775
2811.72571	15192.975
2814.27018	15192.975
2816.81308	15196.875
2819.35442	15170.175
2821.89419	15157.275
2824.43239	15171.075
2826.96904	15120.875
2829.50412	15126.775
2832.03763	15130.175
2834.56959	15099.775
2837.1	15048.575
2839.62884	15083.375
2842.15613	15099.275
2844.68186	15146.275
2847.20604	15147.675
2849.72867	15136.875
2852.24974	15138.675
2854.76927	15172.775
2857.28724	15163.475
2859.80367	15120.175
2862.31855	15130.075
2864.83189	15105.775
2867.34368	15091.375
2869.85393	15121.875
2872.36264	15096.075
2874.8698	15106.575
2877.37543	15116.075
2879.87952	15118.975
2882.38207	15113.075
2884.88308	15101.875
2887.38256	15167.775
2889.88051	15156.375
2892.37692	15147.375
2894.8718	15144.175
2897.36515	15182.475
2899.85698	15166.775
2902.34727	15175.675
2904.83604	15195.175
2907.32328	15212.175
2909.809	15221.175
2912.29319	15234.775
2914.77587	15243.875
2917.25702	15236.075
2919.73665	15209.075
2922.21476	15184.275
2924.69136	15211.275
2927.16644	15234.675
2929.64	15187.175
2932.11205	15182.275
2934.58258	15143.075
2937.05161	15178.275
2939.51912	15191.975
2941.98513	15167.275
2944.44962	15090.875
2946.91261	15047.275
2949.37409	15090.575
2951.83407	15073.875
2954.29254	15083.675
2956.74951	15033.675
2959.20498	15032.575
2961.65895	15023.075
2964.11142	15034.475
2966.56239	14974.975
2969.01186	14964.775
2971.45984	14915.875
2973.90632	14871.875
2976.35131	14838.575
2978.7948	14821.075
2981.23681	14785.875
2983.67732	14789.775
2986.11635	14750.375
2988.55388	14714.375
2990.98993	14691.375
2993.4245	14638.275
2995.85758	14639.475
2998.28917	14594.375
3000.71928	14621.875
3003.14791	14574.275
3005.57506	14547.575
3008.00073	14534.075
3010.42493	14530.475
3012.84764	14509.075
3015.26888	14490.175
3017.68865	14460.575
3020.10694	14423.575
3022.52376	14408.775
3024.9391	14420.575
3027.35298	14401.975
3029.76539	14409.775
3032.17632	14421.375
3034.5858	14352.875
3036.9938	14346.675
3039.40034	14358.975
3041.80542	14333.475
3044.20903	14263.875
3046.61118	14290.575
3049.01187	14272.075
3051.4111	14294.375
3053.80888	14279.775
3056.20519	14220.275
3058.60005	14185.775
3060.99345	14173.275
3063.3854	14184.675
3065.7759	14122.775
3068.16494	14145.975
3070.55254	14037.575
3072.93868	14065.975
3075.32338	14008.675
3077.70662	13967.075
3080.08842	13938.175
3082.46878	13943.575
3084.84769	13919.075
3087.22515	13901.075
3089.60118	13927.175
3091.97576	13950.175
3094.3489	13943.475
3096.72061	13898.875
3099.09087	13924.975
3101.4597	13895.075
3103.82709	13899.475
3106.19305	13894.475
3108.55757	13877.975
3110.92066	13838.675
3113.28232	13818.175
3115.64255	13774.375
3118.00134	13761.075
3120.35871	13750.975
3122.71466	13731.075
3125.06917	13694.375
3127.42226	13688.675
3129.77393	13744.775
3132.12417	13723.675
3134.47299	13708.475
3136.82039	13707.575
3139.16636	13738.975
3141.51092	13723.775
3143.85406	13736.575
3146.19579	13763.575
3148.53609	13756.575
3150.87499	13739.875
3153.21246	13760.275
3155.54853	13771.275
3157.88318	13752.375
3160.21642	13773.075
3162.54826	13744.675
3164.87868	13746.175
3167.2077	13726.875
3169.5353	13762.275
3171.86151	13719.875
3174.18631	13737.675
3176.5097	13734.075
3178.83169	13719.975
3181.15228	13738.975
3183.47147	13716.375
3185.78926	13723.075
3188.10565	13675.975
3190.42065	13690.775
3192.73424	13687.775
3195.04645	13675.075
3197.35725	13709.275
3199.66667	13699.975
3201.97469	13729.175
3204.28132	13689.675
3206.58656	13701.575
3208.8904	13702.075
3211.19287	13728.875
3213.49394	13709.975
3215.79363	13682.075
3218.09193	13730.575
3220.38884	13741.675
3222.68438	13746.675
3224.97853	13702.075
3227.2713	13723.875
3229.56269	13665.375
3231.8527	13674.575
3234.14133	13672.575
3236.42858	13624.275
3238.71446	13623.875
3240.99896	13602.375
3243.28209	13599.975
3245.56384	13612.475
3247.84423	13599.975
3250.12324	13579.875
3252.40088	13581.475
3254.67715	13579.475
3256.95205	13571.375
3259.22558	13598.875
3261.49775	13553.875
3263.76855	13533.275
3266.03799	13493.375
3268.30606	13449.775
3270.57277	13426.975
3272.83812	13419.475
3275.10211	13402.775
3277.36474	13388.175
3279.62601	13416.075
3281.88593	13416.375
3284.14448	13448.075
3286.40168	13412.975
3288.65753	13402.975
3290.91202	13340.675
3293.16516	13321.975
3295.41695	13314.175
3297.66738	13233.075
3299.91647	13161.675
3302.16421	13093.375
3304.4106	13045.975
3306.65564	12954.475
3308.89933	12901.275
3311.14169	12819.875
3313.38269	12718.275
3315.62236	12679.875
3317.86068	12584.075
3320.09766	12439.875
3322.3333	12322.875
3324.5676	12360.475
3326.80056	12168.875
3329.03219	12087.975
3331.26248	4.975
3333.49143	-0.925
3335.71905	-0.025
