Data from AgNP_FTO_APTES_CRN_100uM_R6G_10uM_NaF_0.1M_Addition_RamanShift__7__18-39-38-114.txt Node

Date: Wed Dec 15 18:39:38 GMT 2021
User: TCL
Spectrometer: QEP01345
Trigger mode: 4
Integration Time (sec): 7.000000E0
Scans to average: 10
Electric dark correction enabled: true
Nonlinearity correction enabled: false
Boxcar width: 0
XAxis mode: Raman Shifts
Number of Pixels in Spectrum: 1044
>>>>>Begin Spectral Data<<<<<
46.04893	1.025
50.45542	-2.175
54.85868	-1.075
59.25871	-1.375
63.6555	54.525
68.04907	58.925
72.43941	60.525
76.82654	65.525
81.21044	69.825
85.59113	72.925
89.96862	77.425
94.34289	74.425
98.71396	76.725
103.08183	83.225
107.4465	88.825
111.80798	86.925
116.16626	87.425
120.52136	92.625
124.87327	93.925
129.222	93.625
133.56755	98.325
137.90993	106.625
142.24913	113.925
146.58517	129.225
150.91804	144.225
155.24774	168.425
159.57429	208.725
163.89768	264.225
168.21792	347.025
172.53501	473.325
176.84895	649.925
181.15975	908.625
185.46741	1269.525
189.77193	1756.225
194.07331	2342.925
198.37157	3004.525
202.6667	3719.725
206.9587	4426.825
211.24758	5113.825
215.53334	5799.725
219.81599	6516.125
224.09553	7303.925
228.37195	8185.225
232.64527	9132.525
236.91549	10152.025
241.18261	11215.425
245.44663	12206.825
249.70755	13129.525
253.96539	13919.025
258.22014	14635.625
262.4718	15157.325
266.72039	15498.425
270.96589	15669.525
275.20832	15705.325
279.44768	15627.025
283.68397	15478.325
287.91719	15367.525
292.14735	15311.725
296.37445	15223.625
300.59849	15223.725
304.81948	15175.625
309.03742	15137.425
313.25231	15013.525
317.46415	14794.025
321.67296	14540.125
325.87872	14305.425
330.08145	14172.325
334.28114	14182.825
338.47781	14278.525
342.67145	14432.325
346.86207	14626.725
351.04966	14843.825
355.23424	15015.025
359.4158	15160.625
363.59435	15330.725
367.76989	15373.325
371.94243	15450.125
376.11196	15475.025
380.27849	15505.525
384.44203	15614.525
388.60257	15745.025
392.76012	15914.325
396.91468	16115.525
401.06626	16320.825
405.21485	16509.925
409.36047	16566.625
413.50311	16433.825
417.64277	16398.425
421.77947	16385.025
425.9132	16482.525
430.04396	16602.525
434.17176	16653.325
438.2966	16730.525
442.41849	16886.025
446.53742	17172.925
450.6534	17492.425
454.76644	17729.225
458.87653	17844.825
462.98368	17809.325
467.08789	17738.525
471.18916	17638.325
475.2875	17549.525
479.38291	17512.325
483.4754	17437.325
487.56496	17251.725
491.6516	16993.325
495.73531	16829.125
499.81612	16729.625
503.89401	16873.825
507.96899	16949.225
512.04106	16960.125
516.11023	16897.625
520.1765	16834.925
524.23987	16704.625
528.30034	16591.625
532.35792	16480.725
536.41261	16332.225
540.46441	16202.525
544.51333	16219.725
548.55936	16374.425
552.60252	16651.825
556.64279	16962.925
560.6802	17175.125
564.71473	17276.925
568.7464	17429.025
572.7752	17823.025
576.80114	18270.225
580.82422	18794.925
584.84444	19330.525
588.86181	19996.925
592.87633	20354.725
596.888	20170.325
600.89682	19518.425
604.9028	19225.525
608.90594	19755.525
612.90624	20393.425
616.90371	19388.225
620.89834	17305.225
624.89015	16451.625
628.87913	16387.225
632.86528	16490.825
636.84862	16514.225
640.82913	16377.225
644.80683	16154.325
648.78172	16004.025
652.75379	15980.025
656.72306	16057.325
660.68952	16155.125
664.65319	16138.725
668.61405	16036.725
672.57211	15993.825
676.52738	16051.625
680.47986	16068.525
684.42955	16031.425
688.37646	15953.525
692.32058	16000.525
696.26192	16140.125
700.20048	16330.125
704.13626	16460.125
708.06928	16543.725
711.99952	16553.325
715.927	16560.025
719.85171	16514.925
723.77365	16447.125
727.69284	16244.225
731.60928	16072.025
735.52295	16007.825
739.43388	16013.525
743.34206	16027.325
747.24749	16129.725
751.15017	16259.125
755.05012	16484.225
758.94733	16811.925
762.8418	17401.425
766.73354	18263.725
770.62254	19009.025
774.50882	19091.925
778.39237	18404.425
782.27321	17480.925
786.15132	16732.025
790.02671	16306.825
793.89938	16048.225
797.76935	15972.825
801.6366	15954.725
805.50115	15929.625
809.36299	15877.225
813.22213	15810.225
817.07857	15776.925
820.93231	15711.925
824.78336	15722.925
828.63172	15669.825
832.47738	15647.125
836.32036	15667.625
840.16066	15709.725
843.99827	15661.025
847.8332	15621.025
851.66546	15599.725
855.49504	15612.425
859.32195	15583.325
863.1462	15589.325
866.96777	15567.325
870.78668	15561.525
874.60293	15580.325
878.41652	15577.825
882.22745	15611.525
886.03573	15682.825
889.84136	15698.425
893.64433	15653.325
897.44466	15617.325
901.24235	15563.725
905.0374	15531.725
908.8298	15514.325
912.61957	15555.725
916.40671	15679.025
920.19121	15832.625
923.97308	15891.925
927.75233	15883.325
931.52895	15803.125
935.30295	15609.725
939.07433	15421.525
942.84309	15226.725
946.60924	15156.925
950.37278	15078.625
954.13371	15045.025
957.89203	15060.625
961.64774	15068.425
965.40086	15057.225
969.15137	15009.125
972.89929	14931.725
976.64461	14908.525
980.38733	14851.525
984.12747	14863.925
987.86502	14923.525
991.59999	14953.225
995.33237	15036.625
999.06217	15210.025
1002.78939	15387.025
1006.51404	15594.925
1010.23611	15786.525
1013.95561	15996.925
1017.67255	16014.225
1021.38692	15887.225
1025.09872	15682.425
1028.80796	15524.125
1032.51465	15494.825
1036.21877	15573.425
1039.92035	15614.925
1043.61937	15712.025
1047.31584	15788.925
1051.00976	15892.425
1054.70114	16028.925
1058.38998	16248.325
1062.07627	16546.425
1065.76003	16970.425
1069.44126	17393.925
1073.11995	17819.825
1076.79611	17944.225
1080.46974	17765.725
1084.14085	17434.425
1087.80943	17201.325
1091.47549	17104.925
1095.13903	17055.825
1098.80005	16851.425
1102.45857	16525.725
1106.11456	16228.025
1109.76805	16075.525
1113.41903	16010.125
1117.06751	16059.325
1120.71348	16206.825
1124.35696	16327.525
1127.99793	16546.625
1131.63641	16716.525
1135.2724	16636.225
1138.90589	16582.325
1142.5369	16586.225
1146.16542	16682.925
1149.79145	16804.525
1153.415	16919.325
1157.03607	17055.425
1160.65467	17416.325
1164.27079	17966.825
1167.88443	18725.025
1171.49561	19575.125
1175.10432	20574.725
1178.71056	21816.325
1182.31434	22917.225
1185.91565	23379.125
1189.51451	23221.525
1193.11091	22658.825
1196.70485	21992.625
1200.29634	21298.325
1203.88538	20833.925
1207.47197	20657.925
1211.05612	20521.225
1214.63782	20222.125
1218.21708	19746.125
1221.79391	19229.925
1225.36829	18824.025
1228.94024	18676.125
1232.50976	18517.425
1236.07685	18374.925
1239.6415	18287.825
1243.20374	18298.725
1246.76355	18384.425
1250.32093	18570.425
1253.8759	18892.825
1257.42845	19293.425
1260.97859	19673.225
1264.52631	20116.225
1268.07163	20432.925
1271.61453	20835.925
1275.15503	21303.425
1278.69312	21751.125
1282.22882	22328.025
1285.76211	22992.125
1289.29301	23777.725
1292.82151	24710.725
1296.34761	25774.225
1299.87133	26983.725
1303.39266	28057.525
1306.9116	29046.125
1310.42815	29796.225
1313.94233	30213.425
1317.45412	30181.525
1320.96354	29874.625
1324.47058	29596.525
1327.97525	29411.725
1331.47754	29349.325
1334.97747	29268.525
1338.47502	29127.525
1341.97022	28924.825
1345.46305	28704.325
1348.95352	28429.925
1352.44163	28426.125
1355.92738	28755.825
1359.41078	29530.325
1362.89183	30087.725
1366.37053	29702.725
1369.84688	28069.225
1373.32088	25788.125
1376.79254	24083.425
1380.26186	23331.725
1383.72883	23261.325
1387.19347	23144.325
1390.65578	22922.625
1394.11575	22906.225
1397.57339	23055.925
1401.0287	23239.825
1404.48168	23392.125
1407.93234	23290.625
1411.38068	22837.425
1414.82669	22147.725
1418.27039	21304.425
1421.71177	20556.725
1425.15083	19924.325
1428.58758	19598.625
1432.02203	19717.625
1435.45416	20077.525
1438.88399	20526.225
1442.31151	20889.025
1445.73673	21111.125
1449.15965	21278.825
1452.58027	21409.925
1455.9986	21512.325
1459.41463	21627.825
1462.82837	21946.525
1466.23982	22329.025
1469.64898	22669.225
1473.05586	22914.625
1476.46045	22974.325
1479.86276	22946.725
1483.26279	22797.825
1486.66054	22788.425
1490.05602	22900.425
1493.44922	23223.825
1496.84016	23501.525
1500.22882	23852.725
1503.61521	24461.625
1506.99934	25060.925
1510.38121	25465.125
1513.76081	25450.425
1517.13816	25022.325
1520.51324	24481.225
1523.88607	24108.325
1527.25665	23911.225
1530.62498	23890.125
1533.99105	23765.925
1537.35488	23492.625
1540.71647	23020.625
1544.07581	22510.625
1547.4329	21962.825
1550.78776	21521.125
1554.14038	21172.425
1557.49077	21007.625
1560.83892	20903.725
1564.18484	20987.125
1567.52853	21272.925
1570.86999	21645.425
1574.20922	22361.225
1577.54624	23049.025
1580.88103	23424.825
1584.2136	23479.725
1587.54395	23508.025
1590.87208	23700.425
1594.19801	24276.625
1597.52172	25001.025
1600.84321	25234.425
1604.16251	24451.625
1607.47959	22981.825
1610.79447	21399.525
1614.10715	19964.625
1617.41763	18728.725
1620.7259	17923.125
1624.03199	17462.525
1627.33587	17418.725
1630.63757	17740.225
1633.93707	18555.025
1637.23439	19969.125
1640.52951	22110.725
1643.82246	24591.425
1647.11321	26719.725
1650.40179	27237.225
1653.68819	25740.225
1656.97241	23079.525
1660.25446	20356.025
1663.53433	18248.625
1666.81203	16818.625
1670.08756	15881.825
1673.36092	15262.325
1676.63211	14887.525
1679.90115	14615.325
1683.16801	14424.525
1686.43272	14291.425
1689.69527	14178.025
1692.95567	14095.925
1696.2139	14036.225
1699.46999	14009.425
1702.72392	13963.825
1705.97571	13922.625
1709.22535	13898.725
1712.47284	13840.725
1715.71819	13840.725
1718.96139	13807.325
1722.20246	13761.125
1725.44139	13715.625
1728.67818	13673.125
1731.91284	13609.925
1735.14537	13570.225
1738.37576	13532.825
1741.60403	13473.725
1744.83017	13440.525
1748.05418	13413.825
1751.27607	13390.925
1754.49584	13370.725
1757.71349	13378.025
1760.92903	13373.925
1764.14244	13390.925
1767.35375	13344.625
1770.56294	13321.125
1773.77002	13299.625
1776.97499	13286.025
1780.17785	13234.225
1783.37861	13225.425
1786.57727	13198.025
1789.77382	13171.325
1792.96828	13147.825
1796.16064	13114.725
1799.3509	13074.525
1802.53907	13015.125
1805.72514	13024.725
1808.90913	12999.125
1812.09102	12970.425
1815.27083	12953.825
1818.44856	12927.325
1821.6242	12943.925
1824.79776	12899.725
1827.96924	12890.325
1831.13864	12905.625
1834.30597	12919.425
1837.47122	12877.225
1840.6344	12884.725
1843.7955	12873.025
1846.95454	12858.625
1850.11151	12860.725
1853.26642	12830.225
1856.41926	12843.625
1859.57004	12852.525
1862.71876	12810.925
1865.86542	12802.325
1869.01003	12783.625
1872.15258	12782.525
1875.29308	12756.825
1878.43152	12703.825
1881.56792	12699.925
1884.70227	12676.225
1887.83457	12692.725
1890.96482	12637.425
1894.09304	12643.225
1897.21921	12654.625
1900.34335	12627.225
1903.46544	12597.625
1906.58551	12581.625
1909.70353	12594.425
1912.81953	12546.325
1915.93349	12521.225
1919.04543	12492.825
1922.15534	12459.225
1925.26322	12454.725
1928.36908	12445.825
1931.47292	12403.725
1934.57473	12400.525
1937.67453	12336.925
1940.77232	12324.925
1943.86808	12263.425
1946.96184	12273.625
1950.05358	12218.525
1953.14331	12207.325
1956.23103	12188.025
1959.31675	12158.525
1962.40046	12123.525
1965.48217	12085.525
1968.56188	12071.625
1971.63959	12017.025
1974.7153	11975.425
1977.78901	11929.025
1980.86073	11886.125
1983.93046	11852.825
1986.99819	11844.325
1990.06394	11803.125
1993.1277	11761.125
1996.18947	11719.725
1999.24925	11690.925
2002.30706	11640.925
2005.36288	11641.825
2008.41672	11597.825
2011.46859	11566.625
2014.51848	11547.125
2017.56639	11495.025
2020.61233	11479.825
2023.6563	11481.525
2026.6983	11429.525
2029.73833	11420.925
2032.7764	11388.025
2035.8125	11369.725
2038.84664	11339.925
2041.87881	11322.225
2044.90903	11269.425
2047.93729	11263.625
2050.96359	11274.325
2053.98794	11246.325
2057.01034	11236.025
2060.03078	11251.125
2063.04927	11217.425
2066.06582	11232.325
2069.08042	11224.125
2072.09307	11188.825
2075.10378	11203.825
2078.11255	11186.825
2081.11938	11176.725
2084.12426	11179.825
2087.12722	11187.925
2090.12824	11165.325
2093.12732	11176.925
2096.12447	11181.125
2099.11969	11161.425
2102.11299	11176.425
2105.10435	11177.625
2108.09379	11211.425
2111.08131	11214.425
2114.0669	11213.125
2117.05057	11211.325
2120.03233	11225.925
2123.01216	11223.925
2125.99008	11223.125
2128.96609	11234.225
2131.94018	11250.825
2134.91236	11240.325
2137.88263	11238.425
2140.851	11247.125
2143.81746	11276.125
2146.78201	11255.125
2149.74466	11268.225
2152.7054	11261.425
2155.66425	11289.625
2158.6212	11289.025
2161.57625	11279.425
2164.52941	11261.425
2167.48067	11252.925
2170.43004	11259.925
2173.37752	11257.625
2176.32311	11253.725
2179.26681	11231.425
2182.20863	11250.825
2185.14856	11220.925
2188.08661	11242.625
2191.02278	11243.425
2193.95707	11240.725
2196.88948	11210.925
2199.82001	11188.825
2202.74867	11185.125
2205.67545	11188.025
2208.60037	11187.125
2211.52341	11147.325
2214.44458	11127.525
2217.36388	11101.225
2220.28132	11097.225
2223.1969	11081.225
2226.11061	11059.525
2229.02246	11039.625
2231.93245	11040.425
2234.84058	11012.525
2237.74686	11007.625
2240.65128	11006.025
2243.55385	10989.925
2246.45456	10956.325
2249.35343	10928.625
2252.25044	10904.625
2255.14561	10889.825
2258.03893	10886.325
2260.93041	10875.025
2263.82004	10825.825
2266.70783	10813.825
2269.59378	10786.725
2272.4779	10773.225
2275.36017	10734.725
2278.24061	10703.825
2281.11922	10667.825
2283.996	10658.825
2286.87094	10670.825
2289.74405	10632.225
2292.61534	10633.325
2295.4848	10618.725
2298.35243	10624.125
2301.21824	10604.425
2304.08223	10579.125
2306.94439	10577.225
2309.80474	10562.025
2312.66327	10580.325
2315.51999	10551.125
2318.37489	10526.225
2321.22797	10538.825
2324.07925	10521.425
2326.92871	10502.325
2329.77637	10519.425
2332.62222	10479.825
2335.46626	10473.825
2338.3085	10456.425
2341.14893	10438.125
2343.98756	10433.325
2346.8244	10437.725
2349.65943	10419.625
2352.49267	10412.025
2355.32411	10406.925
2358.15376	10391.625
2360.98161	10402.025
2363.80768	10400.425
2366.63195	10385.825
2369.45444	10368.725
2372.27514	10367.125
2375.09405	10372.625
2377.91118	10348.625
2380.72652	10319.125
2383.54009	10303.825
2386.35187	10279.825
2389.16188	10243.925
2391.97011	10244.125
2394.77657	10221.825
2397.58125	10204.625
2400.38416	10191.425
2403.18529	10172.525
2405.98466	10144.725
2408.78226	10184.525
2411.57809	10147.925
2414.37216	10131.725
2417.16446	10132.025
2419.955	10116.425
2422.74378	10096.325
2425.5308	10088.425
2428.31606	10071.225
2431.09956	10070.825
2433.88131	10056.025
2436.6613	10064.825
2439.43954	10034.525
2442.21603	10019.425
2444.99077	10017.125
2447.76377	10018.725
2450.53501	10010.125
2453.30451	10007.125
2456.07226	9984.825
2458.83827	9999.125
2461.60254	9969.025
2464.36507	9956.725
2467.12586	9950.225
2469.88492	9943.525
2472.64224	9937.525
2475.39782	9967.425
2478.15167	9961.625
2480.90379	9926.325
2483.65417	9936.525
2486.40283	9912.725
2489.14976	9938.825
2491.89497	9926.425
2494.63845	9912.125
2497.3802	9911.725
2500.12024	9898.425
2502.85855	9887.525
2505.59514	9899.025
2508.33002	9875.925
2511.06318	9847.925
2513.79462	9847.725
2516.52435	9852.025
2519.25237	9827.325
2521.97867	9832.725
2524.70327	9827.125
2527.42616	9811.125
2530.14734	9792.925
2532.86681	9771.825
2535.58458	9773.325
2538.30065	9756.525
2541.01501	9739.625
2543.72768	9731.525
2546.43864	9740.925
2549.14791	9711.725
2551.85548	9712.425
2554.56136	9689.125
2557.26554	9684.525
2559.96803	9666.525
2562.66883	9622.625
2565.36794	9660.025
2568.06536	9629.925
2570.7611	9623.925
2573.45514	9625.325
2576.14751	9594.525
2578.83819	9578.325
2581.52719	9578.125
2584.21451	9560.525
2586.90015	9535.225
2589.58411	9545.825
2592.2664	9501.025
2594.94701	9491.025
2597.62594	9493.125
2600.30321	9461.525
2602.9788	9441.625
2605.65273	9429.425
2608.32498	9419.025
2610.99557	9413.025
2613.66449	9398.425
2616.33175	9393.925
2618.99734	9394.925
2621.66128	9375.325
2624.32355	9389.825
2626.98416	9374.025
2629.64311	9375.825
2632.30041	9359.025
2634.95605	9342.725
2637.61004	9323.225
2640.26238	9324.325
2642.91306	9335.525
2645.56209	9320.225
2648.20948	9294.125
2650.85521	9302.925
2653.4993	9319.525
2656.14175	9294.925
2658.78255	9301.925
2661.42171	9313.825
2664.05923	9338.725
2666.6951	9318.525
2669.32934	9297.625
2671.96194	9306.625
2674.59291	9304.625
2677.22224	9298.325
2679.84993	9290.225
2682.476	9282.625
2685.10043	9290.425
2687.72324	9296.325
2690.34441	9301.725
2692.96396	9275.125
2695.58188	9275.925
2698.19818	9270.025
2700.81285	9296.925
2703.4259	9311.725
2706.03733	9338.525
2708.64714	9334.125
2711.25533	9324.225
2713.86191	9345.025
2716.46687	9324.825
2719.07021	9319.525
2721.67194	9333.625
2724.27206	9303.025
2726.87057	9326.025
2729.46747	9288.225
2732.06276	9321.725
2734.65644	9290.225
2737.24852	9312.125
2739.83899	9302.325
2742.42786	9283.425
2745.01513	9271.325
2747.60079	9258.825
2750.18486	9259.025
2752.76733	9271.125
2755.3482	9255.525
2757.92747	9249.025
2760.50515	9227.725
2763.08123	9224.625
2765.65573	9214.325
2768.22863	9199.025
2770.79994	9197.825
2773.36967	9182.725
2775.9378	9164.325
2778.50435	9163.625
2781.06932	9156.925
2783.6327	9152.125
2786.1945	9131.925
2788.75471	9110.625
2791.31335	9085.625
2793.87041	9081.225
2796.42589	9082.625
2798.97979	9072.625
2801.53212	9037.925
2804.08288	9033.125
2806.63206	9018.525
2809.17967	9000.925
2811.72571	8976.525
2814.27018	8962.725
2816.81308	8959.925
2819.35442	8933.325
2821.89419	8923.625
2824.43239	8909.825
2826.96904	8931.925
2829.50412	8913.725
2832.03763	8876.925
2834.56959	8897.425
2837.1	8893.925
2839.62884	8882.425
2842.15613	8893.925
2844.68186	8900.025
2847.20604	8903.925
2849.72867	8909.125
2852.24974	8895.525
2854.76927	8895.625
2857.28724	8883.425
2859.80367	8894.725
2862.31855	8868.725
2864.83189	8843.525
2867.34368	8842.125
2869.85393	8827.625
2872.36264	8811.125
2874.8698	8825.025
2877.37543	8798.225
2879.87952	8832.125
2882.38207	8829.125
2884.88308	8812.525
2887.38256	8823.525
2889.88051	8804.825
2892.37692	8801.425
2894.8718	8800.625
2897.36515	8808.125
2899.85698	8787.325
2902.34727	8821.025
2904.83604	8827.525
2907.32328	8833.925
2909.809	8815.125
2912.29319	8835.225
2914.77587	8821.825
2917.25702	8824.425
2919.73665	8799.625
2922.21476	8823.925
2924.69136	8820.925
2927.16644	8822.825
2929.64	8815.425
2932.11205	8808.825
2934.58258	8776.725
2937.05161	8786.825
2939.51912	8799.625
2941.98513	8778.625
2944.44962	8757.525
2946.91261	8705.425
2949.37409	8730.725
2951.83407	8711.425
2954.29254	8708.325
2956.74951	8710.925
2959.20498	8686.725
2961.65895	8702.025
2964.11142	8677.725
2966.56239	8676.925
2969.01186	8674.125
2971.45984	8624.125
2973.90632	8623.425
2976.35131	8570.625
2978.7948	8565.225
2981.23681	8528.425
2983.67732	8546.525
2986.11635	8537.925
2988.55388	8517.625
2990.98993	8482.225
2993.4245	8465.125
2995.85758	8455.225
2998.28917	8440.625
3000.71928	8426.225
3003.14791	8404.425
3005.57506	8400.825
3008.00073	8410.425
3010.42493	8391.525
3012.84764	8358.925
3015.26888	8344.625
3017.68865	8333.525
3020.10694	8329.625
3022.52376	8312.025
3024.9391	8300.125
3027.35298	8285.125
3029.76539	8292.825
3032.17632	8282.925
3034.5858	8286.525
3036.9938	8265.225
3039.40034	8287.225
3041.80542	8249.225
3044.20903	8225.725
3046.61118	8215.825
3049.01187	8219.825
3051.4111	8196.425
3053.80888	8186.625
3056.20519	8200.525
3058.60005	8170.225
3060.99345	8152.625
3063.3854	8135.825
3065.7759	8099.725
3068.16494	8098.625
3070.55254	8074.825
3072.93868	8069.025
3075.32338	8056.925
3077.70662	8024.225
3080.08842	8000.225
3082.46878	8011.125
3084.84769	7995.325
3087.22515	8002.425
3089.60118	7996.025
3091.97576	8000.325
3094.3489	7997.925
3096.72061	8012.025
3099.09087	7994.025
3101.4597	7979.025
3103.82709	7963.225
3106.19305	7963.425
3108.55757	7967.625
3110.92066	7929.725
3113.28232	7920.825
3115.64255	7896.525
3118.00134	7887.525
3120.35871	7901.525
3122.71466	7873.425
3125.06917	7868.025
3127.42226	7839.525
3129.77393	7872.025
3132.12417	7849.625
3134.47299	7879.025
3136.82039	7861.725
3139.16636	7879.925
3141.51092	7886.525
3143.85406	7880.425
3146.19579	7886.225
3148.53609	7876.225
3150.87499	7893.925
3153.21246	7893.225
3155.54853	7884.725
3157.88318	7886.425
3160.21642	7895.225
3162.54826	7877.725
3164.87868	7904.925
3167.2077	7898.525
3169.5353	7891.825
3171.86151	7870.425
3174.18631	7877.625
3176.5097	7900.925
3178.83169	7861.225
3181.15228	7882.325
3183.47147	7852.025
3185.78926	7861.825
3188.10565	7855.125
3190.42065	7831.125
3192.73424	7834.725
3195.04645	7829.625
3197.35725	7846.525
3199.66667	7835.625
3201.97469	7869.725
3204.28132	7851.525
3206.58656	7850.225
3208.8904	7855.125
3211.19287	7831.625
3213.49394	7853.425
3215.79363	7831.425
3218.09193	7841.525
3220.38884	7832.825
3222.68438	7875.725
3224.97853	7835.225
3227.2713	7845.925
3229.56269	7824.425
3231.8527	7813.425
3234.14133	7800.025
3236.42858	7784.025
3238.71446	7758.025
3240.99896	7755.725
3243.28209	7762.625
3245.56384	7769.525
3247.84423	7740.325
3250.12324	7771.525
3252.40088	7750.625
3254.67715	7739.025
3256.95205	7721.925
3259.22558	7741.525
3261.49775	7715.925
3263.76855	7716.325
3266.03799	7692.725
3268.30606	7683.525
3270.57277	7670.025
3272.83812	7637.425
3275.10211	7639.925
3277.36474	7619.325
3279.62601	7634.925
3281.88593	7600.125
3284.14448	7614.125
3286.40168	7613.925
3288.65753	7595.625
3290.91202	7580.725
3293.16516	7576.325
3295.41695	7557.925
3297.66738	7503.125
3299.91647	7471.725
3302.16421	7421.325
3304.4106	7400.425
3306.65564	7345.225
3308.89933	7300.525
3311.14169	7264.825
3313.38269	7207.625
3315.62236	7168.925
3317.86068	7125.125
3320.09766	7031.725
3322.3333	6970.625
3324.5676	6977.325
3326.80056	6864.925
3329.03219	6814.325
3331.26248	4.425
3333.49143	-0.175
3335.71905	0.125
