Data from AgNP_FTO_APTES_CRN_0uM_R6G_10uM_NaF_0.1M_Addition_RamanShift__74__12-56-02-990.txt Node

Date: Wed Dec 15 12:56:02 GMT 2021
User: TCL
Spectrometer: QEP01345
Trigger mode: 4
Integration Time (sec): 7.000000E0
Scans to average: 10
Electric dark correction enabled: true
Nonlinearity correction enabled: false
Boxcar width: 0
XAxis mode: Raman Shifts
Number of Pixels in Spectrum: 1044
>>>>>Begin Spectral Data<<<<<
46.04893	1.3125
50.45542	-1.8875
54.85868	-0.2875
59.25871	-0.8875
63.6555	87.9125
68.04907	95.4125
72.43941	98.5125
76.82654	106.3125
81.21044	112.5125
85.59113	116.2125
89.96862	125.0125
94.34289	126.0125
98.71396	134.8125
103.08183	134.0125
107.4465	140.1125
111.80798	139.6125
116.16626	137.7125
120.52136	139.8125
124.87327	143.5125
129.222	145.4125
133.56755	150.2125
137.90993	154.5125
142.24913	161.8125
146.58517	171.4125
150.91804	188.2125
155.24774	209.1125
159.57429	250.2125
163.89768	305.6125
168.21792	385.4125
172.53501	502.1125
176.84895	681.4125
181.15975	932.5125
185.46741	1272.5125
189.77193	1757.2125
194.07331	2317.8125
198.37157	2961.8125
202.6667	3650.8125
206.9587	4316.1125
211.24758	4993.0125
215.53334	5700.0125
219.81599	6452.9125
224.09553	7348.0125
228.37195	8329.1125
232.64527	9375.9125
236.91549	10427.8125
241.18261	11373.7125
245.44663	12155.9125
249.70755	12821.5125
253.96539	13345.3125
258.22014	13852.7125
262.4718	14313.5125
266.72039	14694.3125
270.96589	14943.6125
275.20832	14964.4125
279.44768	14851.6125
283.68397	14647.3125
287.91719	14530.4125
292.14735	14548.3125
296.37445	14765.8125
300.59849	15267.7125
304.81948	15825.1125
309.03742	16290.0125
313.25231	16287.1125
317.46415	15589.4125
321.67296	14481.7125
325.87872	13585.5125
330.08145	13170.0125
334.28114	13140.5125
338.47781	13381.0125
342.67145	13745.1125
346.86207	14297.6125
351.04966	15141.3125
355.23424	16091.0125
359.4158	16818.3125
363.59435	17210.0125
367.76989	17237.7125
371.94243	17179.6125
376.11196	17124.5125
380.27849	17017.0125
384.44203	16888.5125
388.60257	16737.9125
392.76012	16688.7125
396.91468	16836.7125
401.06626	17312.3125
405.21485	17718.1125
409.36047	17496.0125
413.50311	16732.2125
417.64277	16008.7125
421.77947	15673.6125
425.9132	15482.0125
430.04396	15495.0125
434.17176	15622.7125
438.2966	15869.8125
442.41849	16292.7125
446.53742	16853.3125
450.6534	17407.2125
454.76644	17790.6125
458.87653	17907.7125
462.98368	17737.5125
467.08789	17340.0125
471.18916	16825.2125
475.2875	16312.2125
479.38291	15900.1125
483.4754	15614.9125
487.56496	15407.5125
491.6516	15228.6125
495.73531	15149.5125
499.81612	15153.0125
503.89401	15288.7125
507.96899	15488.2125
512.04106	15719.5125
516.11023	15937.1125
520.1765	16097.6125
524.23987	16083.7125
528.30034	15824.6125
532.35792	15508.4125
536.41261	15152.4125
540.46441	14758.3125
544.51333	14576.7125
548.55936	14676.1125
552.60252	14962.3125
556.64279	15273.8125
560.6802	15425.6125
564.71473	15651.3125
568.7464	16223.2125
572.7752	16682.8125
576.80114	16466.4125
580.82422	16136.3125
584.84444	16066.7125
588.86181	16113.5125
592.87633	16244.1125
596.888	16601.8125
600.89682	17258.3125
604.9028	19097.6125
608.90594	23712.7125
612.90624	29346.6125
616.90371	27994.0125
620.89834	20082.9125
624.89015	16358.9125
628.87913	15599.3125
632.86528	15602.6125
636.84862	15718.2125
640.82913	15462.4125
644.80683	14848.8125
648.78172	14455.7125
652.75379	14544.9125
656.72306	15260.1125
660.68952	15957.5125
664.65319	15814.0125
668.61405	15059.1125
672.57211	14703.0125
676.52738	14621.8125
680.47986	14612.0125
684.42955	14488.6125
688.37646	14453.8125
692.32058	14526.3125
696.26192	14665.6125
700.20048	14876.1125
704.13626	15081.8125
708.06928	15058.8125
711.99952	14892.6125
715.927	14807.2125
719.85171	14793.5125
723.77365	14721.6125
727.69284	14512.7125
731.60928	14373.3125
735.52295	14405.3125
739.43388	14462.7125
743.34206	14621.5125
747.24749	14762.4125
751.15017	14955.8125
755.05012	15311.6125
758.94733	15993.8125
762.8418	17611.7125
766.73354	20223.2125
770.62254	22893.3125
774.50882	24216.7125
778.39237	23195.6125
782.27321	20323.7125
786.15132	17488.3125
790.02671	15887.9125
793.89938	15151.3125
797.76935	14830.0125
801.6366	14698.0125
805.50115	14577.2125
809.36299	14484.0125
813.22213	14405.4125
817.07857	14427.0125
820.93231	14446.5125
824.78336	14436.5125
828.63172	14555.8125
832.47738	14609.1125
836.32036	14610.4125
840.16066	14545.6125
843.99827	14499.0125
847.8332	14460.7125
851.66546	14384.4125
855.49504	14381.0125
859.32195	14319.8125
863.1462	14252.3125
866.96777	14122.9125
870.78668	14125.1125
874.60293	14157.7125
878.41652	14196.4125
882.22745	14304.3125
886.03573	14365.7125
889.84136	14323.1125
893.64433	14254.6125
897.44466	14203.3125
901.24235	14240.9125
905.0374	14217.8125
908.8298	14176.6125
912.61957	14164.0125
916.40671	14329.6125
920.19121	14481.1125
923.97308	14661.2125
927.75233	14841.1125
931.52895	14940.9125
935.30295	14712.3125
939.07433	14328.0125
942.84309	14036.0125
946.60924	13851.4125
950.37278	13775.1125
954.13371	13655.6125
957.89203	13572.2125
961.64774	13534.1125
965.40086	13487.4125
969.15137	13407.1125
972.89929	13368.7125
976.64461	13371.8125
980.38733	13410.4125
984.12747	13430.7125
987.86502	13481.7125
991.59999	13609.3125
995.33237	13854.1125
999.06217	14236.1125
1002.78939	14759.1125
1006.51404	15269.2125
1010.23611	15733.8125
1013.95561	15981.4125
1017.67255	15935.5125
1021.38692	15622.6125
1025.09872	15325.2125
1028.80796	15287.1125
1032.51465	15549.4125
1036.21877	15888.9125
1039.92035	16020.5125
1043.61937	15946.7125
1047.31584	15647.0125
1051.00976	15332.9125
1054.70114	15109.5125
1058.38998	15069.3125
1062.07627	15127.5125
1065.76003	15283.4125
1069.44126	15469.2125
1073.11995	15770.1125
1076.79611	16075.7125
1080.46974	16277.7125
1084.14085	16543.7125
1087.80943	16762.8125
1091.47549	16801.6125
1095.13903	16410.7125
1098.80005	15808.1125
1102.45857	15317.8125
1106.11456	15093.2125
1109.76805	15093.6125
1113.41903	15347.6125
1117.06751	15760.0125
1120.71348	16306.3125
1124.35696	16905.0125
1127.99793	17440.4125
1131.63641	17424.2125
1135.2724	16837.6125
1138.90589	16195.5125
1142.5369	15775.3125
1146.16542	15485.0125
1149.79145	15340.9125
1153.415	15410.6125
1157.03607	15570.7125
1160.65467	15926.6125
1164.27079	16472.6125
1167.88443	17317.5125
1171.49561	18688.3125
1175.10432	20950.9125
1178.71056	23923.5125
1182.31434	26227.7125
1185.91565	26960.8125
1189.51451	26580.3125
1193.11091	25048.8125
1196.70485	23134.3125
1200.29634	21521.0125
1203.88538	20344.0125
1207.47197	19127.9125
1211.05612	18199.9125
1214.63782	17719.5125
1218.21708	17619.4125
1221.79391	17719.5125
1225.36829	17894.5125
1228.94024	18071.9125
1232.50976	18212.1125
1236.07685	18286.8125
1239.6415	18340.9125
1243.20374	18349.2125
1246.76355	18392.2125
1250.32093	18582.3125
1253.8759	18977.1125
1257.42845	19620.6125
1260.97859	20184.4125
1264.52631	20784.3125
1268.07163	21283.9125
1271.61453	21880.2125
1275.15503	22319.6125
1278.69312	22682.5125
1282.22882	22959.4125
1285.76211	23539.4125
1289.29301	24325.7125
1292.82151	25064.3125
1296.34761	25798.2125
1299.87133	26803.0125
1303.39266	28539.1125
1306.9116	31190.3125
1310.42815	34322.5125
1313.94233	36421.4125
1317.45412	36190.4125
1320.96354	34450.0125
1324.47058	32294.8125
1327.97525	30532.6125
1331.47754	29617.4125
1334.97747	29462.9125
1338.47502	29710.8125
1341.97022	30097.1125
1345.46305	30685.7125
1348.95352	31581.2125
1352.44163	33020.8125
1355.92738	35427.7125
1359.41078	39348.0125
1362.89183	43266.8125
1366.37053	42469.9125
1369.84688	37116.4125
1373.32088	31368.1125
1376.79254	27430.7125
1380.26186	25366.6125
1383.72883	24348.1125
1387.19347	23615.5125
1390.65578	22743.7125
1394.11575	22073.5125
1397.57339	21856.9125
1401.0287	22061.1125
1404.48168	22575.3125
1407.93234	23225.3125
1411.38068	23787.5125
1414.82669	23851.8125
1418.27039	23329.2125
1421.71177	22526.7125
1425.15083	21919.7125
1428.58758	21674.6125
1432.02203	21721.8125
1435.45416	21866.0125
1438.88399	21987.5125
1442.31151	22023.5125
1445.73673	22123.0125
1449.15965	22178.6125
1452.58027	22054.6125
1455.9986	21811.8125
1459.41463	21683.9125
1462.82837	21792.1125
1466.23982	22195.1125
1469.64898	22710.6125
1473.05586	23041.4125
1476.46045	23275.2125
1479.86276	23720.5125
1483.26279	24242.5125
1486.66054	24841.0125
1490.05602	25645.4125
1493.44922	26678.4125
1496.84016	27986.3125
1500.22882	29882.3125
1503.61521	32393.1125
1506.99934	35262.7125
1510.38121	37994.3125
1513.76081	39366.6125
1517.13816	37960.5125
1520.51324	34280.3125
1523.88607	30426.3125
1527.25665	27658.9125
1530.62498	26100.0125
1533.99105	25220.9125
1537.35488	24584.7125
1540.71647	24237.5125
1544.07581	23936.2125
1547.4329	23725.3125
1550.78776	23419.0125
1554.14038	23170.4125
1557.49077	23083.1125
1560.83892	23277.7125
1564.18484	23672.8125
1567.52853	24122.6125
1570.86999	24683.9125
1574.20922	25085.9125
1577.54624	25278.5125
1580.88103	24526.6125
1584.2136	23395.0125
1587.54395	22912.9125
1590.87208	23495.0125
1594.19801	25013.2125
1597.52172	26976.0125
1600.84321	27948.0125
1604.16251	27117.3125
1607.47959	25149.1125
1610.79447	22817.2125
1614.10715	20720.3125
1617.41763	19079.5125
1620.7259	18149.0125
1624.03199	17687.1125
1627.33587	17726.9125
1630.63757	18205.8125
1633.93707	19184.9125
1637.23439	20688.4125
1640.52951	22599.3125
1643.82246	24888.4125
1647.11321	27172.9125
1650.40179	28520.0125
1653.68819	27539.8125
1656.97241	24166.2125
1660.25446	20373.1125
1663.53433	17598.5125
1666.81203	15996.2125
1670.08756	15033.7125
1673.36092	14429.3125
1676.63211	14062.5125
1679.90115	13808.5125
1683.16801	13567.7125
1686.43272	13462.0125
1689.69527	13362.0125
1692.95567	13280.1125
1696.2139	13273.3125
1699.46999	13197.1125
1702.72392	13165.7125
1705.97571	13133.7125
1709.22535	13144.5125
1712.47284	13144.5125
1715.71819	13152.8125
1718.96139	13152.6125
1722.20246	13100.4125
1725.44139	13063.1125
1728.67818	12973.2125
1731.91284	12851.2125
1735.14537	12760.9125
1738.37576	12710.7125
1741.60403	12654.5125
1744.83017	12612.8125
1748.05418	12540.0125
1751.27607	12535.1125
1754.49584	12513.3125
1757.71349	12471.7125
1760.92903	12476.1125
1764.14244	12454.5125
1767.35375	12449.5125
1770.56294	12425.1125
1773.77002	12378.4125
1776.97499	12373.5125
1780.17785	12343.8125
1783.37861	12323.3125
1786.57727	12319.1125
1789.77382	12283.7125
1792.96828	12293.9125
1796.16064	12290.1125
1799.3509	12276.2125
1802.53907	12249.3125
1805.72514	12226.7125
1808.90913	12177.2125
1812.09102	12161.3125
1815.27083	12143.6125
1818.44856	12096.2125
1821.6242	12088.4125
1824.79776	12062.9125
1827.96924	12065.2125
1831.13864	12068.8125
1834.30597	12051.2125
1837.47122	12041.1125
1840.6344	12024.1125
1843.7955	12028.0125
1846.95454	12025.0125
1850.11151	12022.1125
1853.26642	12049.6125
1856.41926	12056.2125
1859.57004	12037.6125
1862.71876	12048.7125
1865.86542	12055.2125
1869.01003	12082.4125
1872.15258	12068.3125
1875.29308	12071.0125
1878.43152	12094.0125
1881.56792	12092.4125
1884.70227	12126.3125
1887.83457	12118.9125
1890.96482	12109.1125
1894.09304	12110.1125
1897.21921	12102.1125
1900.34335	12073.5125
1903.46544	12109.9125
1906.58551	12100.3125
1909.70353	12079.1125
1912.81953	12098.6125
1915.93349	12079.0125
1919.04543	12044.4125
1922.15534	12037.8125
1925.26322	12008.6125
1928.36908	11948.5125
1931.47292	11940.3125
1934.57473	11875.5125
1937.67453	11812.8125
1940.77232	11772.3125
1943.86808	11704.2125
1946.96184	11649.5125
1950.05358	11613.3125
1953.14331	11555.6125
1956.23103	11541.7125
1959.31675	11499.2125
1962.40046	11475.2125
1965.48217	11437.4125
1968.56188	11396.2125
1971.63959	11400.1125
1974.7153	11333.6125
1977.78901	11299.7125
1980.86073	11290.3125
1983.93046	11204.2125
1986.99819	11143.8125
1990.06394	11144.5125
1993.1277	11096.1125
1996.18947	11062.9125
1999.24925	11029.8125
2002.30706	10995.7125
2005.36288	10956.7125
2008.41672	10960.3125
2011.46859	10899.5125
2014.51848	10873.1125
2017.56639	10858.4125
2020.61233	10808.0125
2023.6563	10773.1125
2026.6983	10745.2125
2029.73833	10723.5125
2032.7764	10713.2125
2035.8125	10688.2125
2038.84664	10664.9125
2041.87881	10651.7125
2044.90903	10657.6125
2047.93729	10607.9125
2050.96359	10597.6125
2053.98794	10575.9125
2057.01034	10577.9125
2060.03078	10534.9125
2063.04927	10535.8125
2066.06582	10523.4125
2069.08042	10505.1125
2072.09307	10504.2125
2075.10378	10471.8125
2078.11255	10460.0125
2081.11938	10460.2125
2084.12426	10446.5125
2087.12722	10439.9125
2090.12824	10455.1125
2093.12732	10450.0125
2096.12447	10454.9125
2099.11969	10423.9125
2102.11299	10428.7125
2105.10435	10425.8125
2108.09379	10447.8125
2111.08131	10454.3125
2114.0669	10424.0125
2117.05057	10449.1125
2120.03233	10398.9125
2123.01216	10433.4125
2125.99008	10462.4125
2128.96609	10433.6125
2131.94018	10433.5125
2134.91236	10435.3125
2137.88263	10461.5125
2140.851	10445.8125
2143.81746	10465.3125
2146.78201	10456.3125
2149.74466	10444.9125
2152.7054	10423.4125
2155.66425	10438.4125
2158.6212	10436.1125
2161.57625	10426.0125
2164.52941	10426.9125
2167.48067	10415.7125
2170.43004	10414.2125
2173.37752	10383.6125
2176.32311	10404.9125
2179.26681	10399.7125
2182.20863	10403.2125
2185.14856	10391.3125
2188.08661	10404.3125
2191.02278	10410.0125
2193.95707	10390.3125
2196.88948	10365.0125
2199.82001	10368.9125
2202.74867	10356.1125
2205.67545	10356.8125
2208.60037	10340.7125
2211.52341	10321.5125
2214.44458	10324.5125
2217.36388	10292.1125
2220.28132	10261.7125
2223.1969	10253.8125
2226.11061	10223.1125
2229.02246	10184.4125
2231.93245	10178.7125
2234.84058	10153.6125
2237.74686	10132.6125
2240.65128	10131.9125
2243.55385	10103.5125
2246.45456	10107.7125
2249.35343	10099.6125
2252.25044	10072.1125
2255.14561	10059.0125
2258.03893	10083.7125
2260.93041	10045.4125
2263.82004	10030.2125
2266.70783	10000.9125
2269.59378	9975.1125
2272.4779	9953.3125
2275.36017	9933.3125
2278.24061	9895.5125
2281.11922	9885.7125
2283.996	9838.1125
2286.87094	9844.0125
2289.74405	9811.0125
2292.61534	9779.1125
2295.4848	9783.9125
2298.35243	9766.9125
2301.21824	9774.2125
2304.08223	9783.3125
2306.94439	9786.7125
2309.80474	9773.4125
2312.66327	9753.3125
2315.51999	9768.2125
2318.37489	9756.0125
2321.22797	9720.7125
2324.07925	9722.3125
2326.92871	9724.8125
2329.77637	9710.7125
2332.62222	9699.7125
2335.46626	9688.8125
2338.3085	9672.9125
2341.14893	9705.1125
2343.98756	9706.7125
2346.8244	9673.0125
2349.65943	9676.3125
2352.49267	9694.0125
2355.32411	9705.8125
2358.15376	9698.8125
2360.98161	9696.4125
2363.80768	9703.5125
2366.63195	9690.1125
2369.45444	9681.9125
2372.27514	9662.2125
2375.09405	9632.3125
2377.91118	9615.3125
2380.72652	9577.7125
2383.54009	9557.1125
2386.35187	9537.9125
2389.16188	9492.7125
2391.97011	9482.5125
2394.77657	9447.1125
2397.58125	9440.8125
2400.38416	9393.1125
2403.18529	9371.3125
2405.98466	9347.6125
2408.78226	9327.8125
2411.57809	9316.1125
2414.37216	9278.5125
2417.16446	9270.6125
2419.955	9252.0125
2422.74378	9256.0125
2425.5308	9250.6125
2428.31606	9230.6125
2431.09956	9227.5125
2433.88131	9216.1125
2436.6613	9210.1125
2439.43954	9192.3125
2442.21603	9197.8125
2444.99077	9179.5125
2447.76377	9173.7125
2450.53501	9187.3125
2453.30451	9187.8125
2456.07226	9172.5125
2458.83827	9183.2125
2461.60254	9165.3125
2464.36507	9141.7125
2467.12586	9170.3125
2469.88492	9157.4125
2472.64224	9161.0125
2475.39782	9166.9125
2478.15167	9182.4125
2480.90379	9173.3125
2483.65417	9181.7125
2486.40283	9191.1125
2489.14976	9181.0125
2491.89497	9210.7125
2494.63845	9228.8125
2497.3802	9225.4125
2500.12024	9214.4125
2502.85855	9207.7125
2505.59514	9206.0125
2508.33002	9157.6125
2511.06318	9139.2125
2513.79462	9115.5125
2516.52435	9079.7125
2519.25237	9063.9125
2521.97867	9042.4125
2524.70327	9020.7125
2527.42616	9010.3125
2530.14734	9015.0125
2532.86681	9008.8125
2535.58458	8980.5125
2538.30065	8971.1125
2541.01501	8984.0125
2543.72768	8982.6125
2546.43864	8957.9125
2549.14791	8966.1125
2551.85548	8938.1125
2554.56136	8945.2125
2557.26554	8931.4125
2559.96803	8930.3125
2562.66883	8904.8125
2565.36794	8895.3125
2568.06536	8891.5125
2570.7611	8879.0125
2573.45514	8863.9125
2576.14751	8885.5125
2578.83819	8841.4125
2581.52719	8847.3125
2584.21451	8830.6125
2586.90015	8820.4125
2589.58411	8821.8125
2592.2664	8802.5125
2594.94701	8789.5125
2597.62594	8786.2125
2600.30321	8764.8125
2602.9788	8781.9125
2605.65273	8770.8125
2608.32498	8783.7125
2610.99557	8757.4125
2613.66449	8785.3125
2616.33175	8774.3125
2618.99734	8759.3125
2621.66128	8781.1125
2624.32355	8771.0125
2626.98416	8768.8125
2629.64311	8752.9125
2632.30041	8755.8125
2634.95605	8731.9125
2637.61004	8722.7125
2640.26238	8710.5125
2642.91306	8684.4125
2645.56209	8670.1125
2648.20948	8669.6125
2650.85521	8650.5125
2653.4993	8689.4125
2656.14175	8651.5125
2658.78255	8680.7125
2661.42171	8667.5125
2664.05923	8706.4125
2666.6951	8693.7125
2669.32934	8705.8125
2671.96194	8704.9125
2674.59291	8737.3125
2677.22224	8732.5125
2679.84993	8728.9125
2682.476	8734.5125
2685.10043	8724.9125
2687.72324	8731.5125
2690.34441	8743.5125
2692.96396	8735.5125
2695.58188	8739.1125
2698.19818	8736.3125
2700.81285	8738.8125
2703.4259	8727.3125
2706.03733	8735.0125
2708.64714	8726.5125
2711.25533	8740.4125
2713.86191	8728.7125
2716.46687	8739.6125
2719.07021	8737.5125
2721.67194	8750.9125
2724.27206	8750.3125
2726.87057	8740.3125
2729.46747	8743.6125
2732.06276	8776.5125
2734.65644	8765.6125
2737.24852	8762.6125
2739.83899	8736.3125
2742.42786	8746.8125
2745.01513	8747.5125
2747.60079	8729.2125
2750.18486	8708.4125
2752.76733	8734.6125
2755.3482	8716.8125
2757.92747	8718.6125
2760.50515	8709.6125
2763.08123	8695.2125
2765.65573	8707.1125
2768.22863	8718.8125
2770.79994	8672.0125
2773.36967	8706.3125
2775.9378	8705.2125
2778.50435	8663.7125
2781.06932	8678.5125
2783.6327	8680.9125
2786.1945	8679.2125
2788.75471	8686.6125
2791.31335	8677.0125
2793.87041	8671.6125
2796.42589	8670.1125
2798.97979	8681.6125
2801.53212	8670.3125
2804.08288	8677.9125
2806.63206	8662.7125
2809.17967	8665.6125
2811.72571	8650.9125
2814.27018	8662.8125
2816.81308	8679.3125
2819.35442	8676.3125
2821.89419	8707.2125
2824.43239	8721.6125
2826.96904	8723.9125
2829.50412	8724.0125
2832.03763	8720.2125
2834.56959	8738.5125
2837.1	8737.0125
2839.62884	8741.7125
2842.15613	8739.4125
2844.68186	8799.3125
2847.20604	8854.6125
2849.72867	8866.6125
2852.24974	8901.4125
2854.76927	8890.6125
2857.28724	8861.2125
2859.80367	8851.9125
2862.31855	8816.0125
2864.83189	8798.5125
2867.34368	8799.3125
2869.85393	8793.6125
2872.36264	8769.1125
2874.8698	8751.6125
2877.37543	8735.2125
2879.87952	8755.0125
2882.38207	8742.8125
2884.88308	8690.0125
2887.38256	8717.1125
2889.88051	8700.4125
2892.37692	8695.0125
2894.8718	8668.1125
2897.36515	8691.5125
2899.85698	8681.7125
2902.34727	8720.2125
2904.83604	8704.4125
2907.32328	8705.7125
2909.809	8704.5125
2912.29319	8688.5125
2914.77587	8652.5125
2917.25702	8655.2125
2919.73665	8649.0125
2922.21476	8650.9125
2924.69136	8603.2125
2927.16644	8631.4125
2929.64	8599.4125
2932.11205	8596.5125
2934.58258	8541.6125
2937.05161	8517.0125
2939.51912	8525.9125
2941.98513	8471.7125
2944.44962	8419.2125
2946.91261	8358.1125
2949.37409	8335.1125
2951.83407	8302.0125
2954.29254	8275.0125
2956.74951	8236.1125
2959.20498	8224.4125
2961.65895	8204.9125
2964.11142	8197.2125
2966.56239	8145.6125
2969.01186	8124.6125
2971.45984	8089.2125
2973.90632	8061.7125
2976.35131	8060.7125
2978.7948	8003.0125
2981.23681	8002.4125
2983.67732	7972.7125
2986.11635	7915.6125
2988.55388	7913.2125
2990.98993	7890.5125
2993.4245	7865.6125
2995.85758	7822.3125
2998.28917	7817.8125
3000.71928	7799.9125
3003.14791	7751.2125
3005.57506	7737.7125
3008.00073	7717.2125
3010.42493	7728.1125
3012.84764	7721.0125
3015.26888	7688.2125
3017.68865	7678.2125
3020.10694	7675.6125
3022.52376	7642.0125
3024.9391	7631.1125
3027.35298	7597.6125
3029.76539	7599.8125
3032.17632	7605.7125
3034.5858	7566.4125
3036.9938	7560.4125
3039.40034	7537.6125
3041.80542	7545.4125
3044.20903	7511.1125
3046.61118	7494.3125
3049.01187	7467.8125
3051.4111	7452.5125
3053.80888	7445.0125
3056.20519	7439.0125
3058.60005	7405.6125
3060.99345	7399.7125
3063.3854	7384.7125
3065.7759	7348.7125
3068.16494	7335.1125
3070.55254	7310.3125
3072.93868	7309.6125
3075.32338	7242.0125
3077.70662	7224.0125
3080.08842	7195.1125
3082.46878	7194.0125
3084.84769	7158.9125
3087.22515	7146.0125
3089.60118	7156.8125
3091.97576	7137.6125
3094.3489	7116.9125
3096.72061	7101.6125
3099.09087	7086.0125
3101.4597	7088.8125
3103.82709	7079.3125
3106.19305	7071.9125
3108.55757	7054.5125
3110.92066	7038.4125
3113.28232	7026.6125
3115.64255	6998.6125
3118.00134	6964.1125
3120.35871	6975.7125
3122.71466	6960.5125
3125.06917	6976.7125
3127.42226	6925.0125
3129.77393	6940.7125
3132.12417	6929.4125
3134.47299	6908.2125
3136.82039	6932.5125
3139.16636	6931.4125
3141.51092	6927.1125
3143.85406	6926.6125
3146.19579	6926.5125
3148.53609	6893.7125
3150.87499	6927.8125
3153.21246	6916.2125
3155.54853	6930.9125
3157.88318	6909.6125
3160.21642	6910.5125
3162.54826	6891.8125
3164.87868	6887.5125
3167.2077	6868.3125
3169.5353	6889.6125
3171.86151	6864.7125
3174.18631	6873.2125
3176.5097	6878.9125
3178.83169	6838.1125
3181.15228	6838.3125
3183.47147	6839.3125
3185.78926	6845.5125
3188.10565	6838.7125
3190.42065	6844.4125
3192.73424	6826.6125
3195.04645	6822.7125
3197.35725	6823.0125
3199.66667	6848.8125
3201.97469	6822.6125
3204.28132	6824.6125
3206.58656	6835.4125
3208.8904	6819.4125
3211.19287	6821.8125
3213.49394	6832.4125
3215.79363	6836.0125
3218.09193	6809.4125
3220.38884	6812.7125
3222.68438	6816.6125
3224.97853	6802.2125
3227.2713	6808.4125
3229.56269	6776.7125
3231.8527	6796.9125
3234.14133	6748.5125
3236.42858	6755.8125
3238.71446	6739.2125
3240.99896	6714.4125
3243.28209	6735.4125
3245.56384	6724.1125
3247.84423	6719.3125
3250.12324	6699.5125
3252.40088	6705.4125
3254.67715	6713.3125
3256.95205	6667.1125
3259.22558	6661.7125
3261.49775	6642.4125
3263.76855	6642.3125
3266.03799	6623.6125
3268.30606	6613.6125
3270.57277	6631.3125
3272.83812	6601.7125
3275.10211	6579.5125
3277.36474	6589.4125
3279.62601	6576.3125
3281.88593	6561.3125
3284.14448	6577.6125
3286.40168	6554.2125
3288.65753	6562.7125
3290.91202	6562.4125
3293.16516	6520.3125
3295.41695	6495.1125
3297.66738	6478.8125
3299.91647	6433.1125
3302.16421	6402.6125
3304.4106	6373.8125
3306.65564	6348.2125
3308.89933	6298.5125
3311.14169	6249.1125
3313.38269	6184.3125
3315.62236	6171.3125
3317.86068	6105.0125
3320.09766	6036.0125
3322.3333	6008.5125
3324.5676	5982.2125
3326.80056	5891.4125
3329.03219	5850.5125
3331.26248	1.9125
3333.49143	0.0125
3335.71905	-0.4875
