Data from AgNP_FTO_APTES_CRN_0uM_R6G_10uM_NaF_0.1M_Addition_RamanShift__9__11-40-12-904.txt Node

Date: Wed Dec 15 11:40:12 GMT 2021
User: TCL
Spectrometer: QEP01345
Trigger mode: 4
Integration Time (sec): 7.000000E0
Scans to average: 10
Electric dark correction enabled: true
Nonlinearity correction enabled: false
Boxcar width: 0
XAxis mode: Raman Shifts
Number of Pixels in Spectrum: 1044
>>>>>Begin Spectral Data<<<<<
46.04893	1.25
50.45542	-1.15
54.85868	-1.95
59.25871	0.25
63.6555	77.65
68.04907	85.85
72.43941	94.35
76.82654	97.25
81.21044	104.15
85.59113	114.45
89.96862	121.95
94.34289	121.25
98.71396	129.65
103.08183	132.65
107.4465	132.75
111.80798	134.45
116.16626	134.25
120.52136	135.45
124.87327	130.45
129.222	130.65
133.56755	130.75
137.90993	128.15
142.24913	131.65
146.58517	127.55
150.91804	134.75
155.24774	137.95
159.57429	152.05
163.89768	168.95
168.21792	190.65
172.53501	221.15
176.84895	272.85
181.15975	348.25
185.46741	467.15
189.77193	628.65
194.07331	839.35
198.37157	1080.55
202.6667	1352.25
206.9587	1624.95
211.24758	1905.15
215.53334	2194.95
219.81599	2483.95
224.09553	2793.45
228.37195	3146.35
232.64527	3520.55
236.91549	3908.15
241.18261	4295.25
245.44663	4649.55
249.70755	4954.75
253.96539	5203.15
258.22014	5361.65
262.4718	5438.95
266.72039	5438.35
270.96589	5357.75
275.20832	5219.65
279.44768	5015.75
283.68397	4811.95
287.91719	4604.15
292.14735	4448.85
296.37445	4290.45
300.59849	4194.85
304.81948	4129.05
309.03742	4078.65
313.25231	4030.75
317.46415	3959.15
321.67296	3892.75
325.87872	3841.85
330.08145	3819.75
334.28114	3785.55
338.47781	3761.15
342.67145	3738.35
346.86207	3706.65
351.04966	3684.65
355.23424	3672.65
359.4158	3633.95
363.59435	3600.25
367.76989	3557.95
371.94243	3504.45
376.11196	3472.45
380.27849	3448.35
384.44203	3423.15
388.60257	3405.75
392.76012	3386.85
396.91468	3397.85
401.06626	3428.25
405.21485	3441.75
409.36047	3436.45
413.50311	3392.45
417.64277	3383.85
421.77947	3365.75
425.9132	3368.15
430.04396	3409.65
434.17176	3416.65
438.2966	3449.45
442.41849	3473.85
446.53742	3519.95
450.6534	3534.45
454.76644	3564.65
458.87653	3562.55
462.98368	3562.55
467.08789	3547.45
471.18916	3552.85
475.2875	3520.35
479.38291	3504.95
483.4754	3496.55
487.56496	3484.65
491.6516	3469.35
495.73531	3484.45
499.81612	3475.35
503.89401	3505.55
507.96899	3515.95
512.04106	3557.65
516.11023	3575.05
520.1765	3606.25
524.23987	3617.65
528.30034	3600.85
532.35792	3618.95
536.41261	3623.35
540.46441	3599.95
544.51333	3615.75
548.55936	3637.55
552.60252	3687.45
556.64279	3742.95
560.6802	3753.85
564.71473	3784.25
568.7464	3750.55
572.7752	3738.95
576.80114	3685.35
580.82422	3650.95
584.84444	3671.55
588.86181	3735.45
592.87633	3819.75
596.888	3913.35
600.89682	4087.85
604.9028	4352.65
608.90594	4772.95
612.90624	5239.25
616.90371	5162.45
620.89834	4556.55
624.89015	4075.95
628.87913	3804.05
632.86528	3616.55
636.84862	3514.85
640.82913	3435.25
644.80683	3356.75
648.78172	3335.05
652.75379	3331.05
656.72306	3363.15
660.68952	3392.15
664.65319	3406.45
668.61405	3358.55
672.57211	3361.15
676.52738	3377.65
680.47986	3407.55
684.42955	3429.75
688.37646	3412.75
692.32058	3426.45
696.26192	3411.75
700.20048	3413.65
704.13626	3434.15
708.06928	3473.85
711.99952	3475.55
715.927	3488.55
719.85171	3512.15
723.77365	3506.85
727.69284	3497.55
731.60928	3505.95
735.52295	3515.35
739.43388	3513.05
743.34206	3516.75
747.24749	3526.25
751.15017	3532.95
755.05012	3552.65
758.94733	3568.05
762.8418	3656.25
766.73354	3781.05
770.62254	3942.95
774.50882	4038.75
778.39237	3966.45
782.27321	3806.75
786.15132	3654.55
790.02671	3559.25
793.89938	3523.85
797.76935	3492.45
801.6366	3491.95
805.50115	3471.35
809.36299	3471.75
813.22213	3452.25
817.07857	3449.75
820.93231	3437.95
824.78336	3419.65
828.63172	3426.95
832.47738	3430.85
836.32036	3451.45
840.16066	3463.75
843.99827	3495.35
847.8332	3495.25
851.66546	3494.45
855.49504	3485.25
859.32195	3514.75
863.1462	3515.85
866.96777	3532.75
870.78668	3559.75
874.60293	3599.25
878.41652	3633.85
882.22745	3665.85
886.03573	3746.65
889.84136	3840.55
893.64433	3927.75
897.44466	4042.15
901.24235	4165.45
905.0374	4305.85
908.8298	4464.75
912.61957	4636.75
916.40671	4843.55
920.19121	4999.55
923.97308	5131.25
927.75233	5188.25
931.52895	5151.25
935.30295	5016.35
939.07433	4814.55
942.84309	4568.05
946.60924	4385.85
950.37278	4223.95
954.13371	4078.75
957.89203	3952.95
961.64774	3845.85
965.40086	3732.25
969.15137	3647.05
972.89929	3580.85
976.64461	3518.05
980.38733	3465.65
984.12747	3449.25
987.86502	3450.65
991.59999	3447.75
995.33237	3477.35
999.06217	3507.75
1002.78939	3542.75
1006.51404	3590.25
1010.23611	3602.85
1013.95561	3605.75
1017.67255	3567.35
1021.38692	3538.15
1025.09872	3495.95
1028.80796	3492.25
1032.51465	3515.35
1036.21877	3562.55
1039.92035	3622.25
1043.61937	3695.85
1047.31584	3778.75
1051.00976	3853.65
1054.70114	3918.65
1058.38998	3965.05
1062.07627	4014.65
1065.76003	4023.75
1069.44126	4037.85
1073.11995	4032.15
1076.79611	4033.75
1080.46974	4004.65
1084.14085	3978.85
1087.80943	3939.95
1091.47549	3884.55
1095.13903	3804.45
1098.80005	3730.05
1102.45857	3643.05
1106.11456	3582.05
1109.76805	3530.15
1113.41903	3524.95
1117.06751	3506.65
1120.71348	3519.25
1124.35696	3516.05
1127.99793	3519.65
1131.63641	3503.15
1135.2724	3418.65
1138.90589	3345.15
1142.5369	3269.95
1146.16542	3211.55
1149.79145	3158.05
1153.415	3110.65
1157.03607	3074.25
1160.65467	3090.75
1164.27079	3116.85
1167.88443	3169.75
1171.49561	3287.85
1175.10432	3439.05
1178.71056	3696.65
1182.31434	3957.55
1185.91565	4175.65
1189.51451	4281.25
1193.11091	4263.35
1196.70485	4138.45
1200.29634	3952.05
1203.88538	3758.85
1207.47197	3578.35
1211.05612	3407.65
1214.63782	3311.55
1218.21708	3256.05
1221.79391	3249.65
1225.36829	3277.95
1228.94024	3307.95
1232.50976	3310.25
1236.07685	3285.15
1239.6415	3238.25
1243.20374	3177.95
1246.76355	3134.35
1250.32093	3095.35
1253.8759	3098.85
1257.42845	3124.25
1260.97859	3151.95
1264.52631	3211.15
1268.07163	3261.55
1271.61453	3313.45
1275.15503	3328.55
1278.69312	3376.25
1282.22882	3384.45
1285.76211	3440.25
1289.29301	3521.65
1292.82151	3597.65
1296.34761	3679.85
1299.87133	3745.65
1303.39266	3824.45
1306.9116	3909.85
1310.42815	4023.95
1313.94233	4075.85
1317.45412	4000.05
1320.96354	3871.65
1324.47058	3723.95
1327.97525	3619.55
1331.47754	3546.75
1334.97747	3530.95
1338.47502	3545.15
1341.97022	3565.15
1345.46305	3649.45
1348.95352	3749.75
1352.44163	3920.65
1355.92738	4128.25
1359.41078	4395.15
1362.89183	4681.15
1366.37053	4746.25
1369.84688	4486.25
1373.32088	4108.35
1376.79254	3870.65
1380.26186	3721.75
1383.72883	3668.85
1387.19347	3619.45
1390.65578	3589.35
1394.11575	3547.05
1397.57339	3520.75
1401.0287	3467.25
1404.48168	3454.75
1407.93234	3438.15
1411.38068	3409.65
1414.82669	3373.55
1418.27039	3328.95
1421.71177	3293.25
1425.15083	3235.35
1428.58758	3172.85
1432.02203	3136.55
1435.45416	3119.05
1438.88399	3132.15
1442.31151	3145.45
1445.73673	3163.35
1449.15965	3166.65
1452.58027	3141.35
1455.9986	3104.55
1459.41463	3060.05
1462.82837	3045.45
1466.23982	3048.85
1469.64898	3050.95
1473.05586	3057.25
1476.46045	3064.45
1479.86276	3073.35
1483.26279	3076.65
1486.66054	3105.25
1490.05602	3128.45
1493.44922	3158.85
1496.84016	3216.75
1500.22882	3314.15
1503.61521	3474.15
1506.99934	3670.65
1510.38121	3839.05
1513.76081	3909.45
1517.13816	3797.25
1520.51324	3579.35
1523.88607	3349.55
1527.25665	3200.15
1530.62498	3110.35
1533.99105	3056.55
1537.35488	3034.15
1540.71647	2990.35
1544.07581	2985.45
1547.4329	2970.35
1550.78776	2957.45
1554.14038	2951.85
1557.49077	2959.75
1560.83892	2966.35
1564.18484	2984.85
1567.52853	2999.05
1570.86999	3034.95
1574.20922	3072.85
1577.54624	3095.15
1580.88103	3039.85
1584.2136	2978.55
1587.54395	2905.75
1590.87208	2861.65
1594.19801	2867.35
1597.52172	2897.15
1600.84321	2916.85
1604.16251	2882.55
1607.47959	2836.55
1610.79447	2798.75
1614.10715	2749.85
1617.41763	2725.05
1620.7259	2680.65
1624.03199	2666.55
1627.33587	2670.85
1630.63757	2678.15
1633.93707	2680.55
1637.23439	2729.55
1640.52951	2799.75
1643.82246	2897.15
1647.11321	3016.15
1650.40179	3101.35
1653.68819	3046.75
1656.97241	2876.35
1660.25446	2660.05
1663.53433	2500.75
1666.81203	2389.95
1670.08756	2321.45
1673.36092	2270.75
1676.63211	2236.75
1679.90115	2208.95
1683.16801	2186.55
1686.43272	2157.45
1689.69527	2136.45
1692.95567	2115.55
1696.2139	2095.75
1699.46999	2070.15
1702.72392	2050.25
1705.97571	2066.95
1709.22535	2048.05
1712.47284	2054.95
1715.71819	2042.25
1718.96139	2041.55
1722.20246	2025.15
1725.44139	2021.75
1728.67818	2004.85
1731.91284	1989.95
1735.14537	1989.05
1738.37576	1969.75
1741.60403	1972.25
1744.83017	1964.05
1748.05418	1940.95
1751.27607	1940.05
1754.49584	1926.75
1757.71349	1912.05
1760.92903	1913.25
1764.14244	1908.65
1767.35375	1893.95
1770.56294	1906.25
1773.77002	1890.75
1776.97499	1896.65
1780.17785	1891.25
1783.37861	1902.65
1786.57727	1888.65
1789.77382	1889.95
1792.96828	1884.25
1796.16064	1875.95
1799.3509	1872.05
1802.53907	1881.45
1805.72514	1870.55
1808.90913	1863.95
1812.09102	1855.45
1815.27083	1856.05
1818.44856	1847.95
1821.6242	1847.95
1824.79776	1839.45
1827.96924	1848.85
1831.13864	1840.25
1834.30597	1825.65
1837.47122	1834.85
1840.6344	1834.75
1843.7955	1833.25
1846.95454	1819.15
1850.11151	1820.85
1853.26642	1812.45
1856.41926	1802.75
1859.57004	1811.45
1862.71876	1800.35
1865.86542	1797.55
1869.01003	1789.65
1872.15258	1789.65
1875.29308	1780.15
1878.43152	1775.85
1881.56792	1774.65
1884.70227	1771.15
1887.83457	1764.15
1890.96482	1759.85
1894.09304	1764.95
1897.21921	1753.75
1900.34335	1751.85
1903.46544	1748.95
1906.58551	1743.75
1909.70353	1735.05
1912.81953	1734.15
1915.93349	1733.55
1919.04543	1727.65
1922.15534	1719.25
1925.26322	1715.25
1928.36908	1710.45
1931.47292	1703.55
1934.57473	1702.15
1937.67453	1697.85
1940.77232	1694.95
1943.86808	1693.35
1946.96184	1681.35
1950.05358	1678.15
1953.14331	1672.95
1956.23103	1667.85
1959.31675	1672.35
1962.40046	1658.25
1965.48217	1659.05
1968.56188	1653.95
1971.63959	1639.95
1974.7153	1642.95
1977.78901	1629.35
1980.86073	1635.35
1983.93046	1618.15
1986.99819	1623.85
1990.06394	1618.15
1993.1277	1609.45
1996.18947	1595.15
1999.24925	1595.05
2002.30706	1579.95
2005.36288	1583.85
2008.41672	1591.25
2011.46859	1568.05
2014.51848	1570.55
2017.56639	1567.15
2020.61233	1558.05
2023.6563	1548.95
2026.6983	1547.15
2029.73833	1550.25
2032.7764	1539.25
2035.8125	1541.95
2038.84664	1524.65
2041.87881	1526.15
2044.90903	1528.45
2047.93729	1518.45
2050.96359	1520.45
2053.98794	1511.75
2057.01034	1516.85
2060.03078	1506.35
2063.04927	1504.95
2066.06582	1507.55
2069.08042	1513.25
2072.09307	1506.45
2075.10378	1500.85
2078.11255	1497.75
2081.11938	1511.45
2084.12426	1507.15
2087.12722	1502.25
2090.12824	1490.85
2093.12732	1495.45
2096.12447	1489.45
2099.11969	1496.15
2102.11299	1503.15
2105.10435	1506.15
2108.09379	1490.95
2111.08131	1500.15
2114.0669	1501.05
2117.05057	1500.05
2120.03233	1490.15
2123.01216	1497.35
2125.99008	1497.05
2128.96609	1490.05
2131.94018	1489.15
2134.91236	1492.45
2137.88263	1492.05
2140.851	1496.95
2143.81746	1494.85
2146.78201	1490.05
2149.74466	1490.65
2152.7054	1490.95
2155.66425	1485.65
2158.6212	1484.25
2161.57625	1486.95
2164.52941	1483.45
2167.48067	1483.85
2170.43004	1484.25
2173.37752	1473.55
2176.32311	1479.45
2179.26681	1467.25
2182.20863	1472.45
2185.14856	1477.25
2188.08661	1470.65
2191.02278	1471.15
2193.95707	1470.85
2196.88948	1467.05
2199.82001	1466.85
2202.74867	1458.25
2205.67545	1458.25
2208.60037	1450.35
2211.52341	1452.85
2214.44458	1446.05
2217.36388	1448.45
2220.28132	1447.35
2223.1969	1441.65
2226.11061	1432.15
2229.02246	1427.05
2231.93245	1434.55
2234.84058	1421.25
2237.74686	1429.75
2240.65128	1423.85
2243.55385	1420.05
2246.45456	1419.55
2249.35343	1409.15
2252.25044	1410.05
2255.14561	1400.65
2258.03893	1403.75
2260.93041	1402.95
2263.82004	1401.35
2266.70783	1396.15
2269.59378	1389.55
2272.4779	1381.85
2275.36017	1379.75
2278.24061	1383.05
2281.11922	1374.75
2283.996	1369.75
2286.87094	1371.05
2289.74405	1361.25
2292.61534	1349.55
2295.4848	1356.95
2298.35243	1353.35
2301.21824	1342.65
2304.08223	1355.15
2306.94439	1352.25
2309.80474	1342.35
2312.66327	1333.45
2315.51999	1344.45
2318.37489	1342.95
2321.22797	1339.65
2324.07925	1332.85
2326.92871	1335.05
2329.77637	1333.55
2332.62222	1331.55
2335.46626	1322.05
2338.3085	1315.85
2341.14893	1313.85
2343.98756	1321.85
2346.8244	1316.15
2349.65943	1302.15
2352.49267	1307.15
2355.32411	1306.75
2358.15376	1315.15
2360.98161	1301.65
2363.80768	1305.55
2366.63195	1298.35
2369.45444	1306.65
2372.27514	1302.85
2375.09405	1300.45
2377.91118	1293.45
2380.72652	1301.25
2383.54009	1291.05
2386.35187	1286.75
2389.16188	1280.65
2391.97011	1280.85
2394.77657	1287.95
2397.58125	1276.45
2400.38416	1272.45
2403.18529	1270.25
2405.98466	1263.25
2408.78226	1261.95
2411.57809	1259.65
2414.37216	1255.85
2417.16446	1246.65
2419.955	1255.05
2422.74378	1249.95
2425.5308	1247.05
2428.31606	1249.45
2431.09956	1238.55
2433.88131	1244.85
2436.6613	1236.45
2439.43954	1232.15
2442.21603	1236.05
2444.99077	1234.35
2447.76377	1229.95
2450.53501	1230.35
2453.30451	1221.65
2456.07226	1219.35
2458.83827	1221.15
2461.60254	1213.65
2464.36507	1211.15
2467.12586	1211.75
2469.88492	1207.55
2472.64224	1203.15
2475.39782	1206.25
2478.15167	1203.35
2480.90379	1210.05
2483.65417	1210.65
2486.40283	1195.85
2489.14976	1204.15
2491.89497	1199.25
2494.63845	1196.35
2497.3802	1198.45
2500.12024	1198.75
2502.85855	1193.75
2505.59514	1196.95
2508.33002	1182.35
2511.06318	1186.05
2513.79462	1177.75
2516.52435	1177.95
2519.25237	1180.25
2521.97867	1180.95
2524.70327	1177.45
2527.42616	1172.85
2530.14734	1161.95
2532.86681	1165.75
2535.58458	1159.55
2538.30065	1165.85
2541.01501	1162.35
2543.72768	1156.45
2546.43864	1156.65
2549.14791	1157.35
2551.85548	1155.15
2554.56136	1152.65
2557.26554	1147.75
2559.96803	1139.75
2562.66883	1142.35
2565.36794	1146.05
2568.06536	1139.55
2570.7611	1135.05
2573.45514	1139.55
2576.14751	1128.45
2578.83819	1136.55
2581.52719	1137.85
2584.21451	1124.05
2586.90015	1124.05
2589.58411	1124.35
2592.2664	1124.65
2594.94701	1110.35
2597.62594	1107.15
2600.30321	1116.25
2602.9788	1114.25
2605.65273	1108.35
2608.32498	1109.95
2610.99557	1101.85
2613.66449	1099.45
2616.33175	1109.05
2618.99734	1095.15
2621.66128	1099.15
2624.32355	1095.15
2626.98416	1097.55
2629.64311	1099.45
2632.30041	1096.35
2634.95605	1089.45
2637.61004	1101.55
2640.26238	1094.05
2642.91306	1095.05
2645.56209	1090.85
2648.20948	1085.85
2650.85521	1094.55
2653.4993	1095.15
2656.14175	1096.45
2658.78255	1089.95
2661.42171	1092.55
2664.05923	1089.15
2666.6951	1096.05
2669.32934	1087.85
2671.96194	1090.25
2674.59291	1090.85
2677.22224	1089.65
2679.84993	1096.85
2682.476	1090.65
2685.10043	1091.05
2687.72324	1096.35
2690.34441	1087.85
2692.96396	1097.15
2695.58188	1095.15
2698.19818	1086.45
2700.81285	1104.75
2703.4259	1094.15
2706.03733	1084.95
2708.64714	1096.75
2711.25533	1098.75
2713.86191	1101.25
2716.46687	1100.25
2719.07021	1103.35
2721.67194	1101.75
2724.27206	1097.35
2726.87057	1100.75
2729.46747	1100.75
2732.06276	1106.75
2734.65644	1102.55
2737.24852	1100.55
2739.83899	1103.65
2742.42786	1112.05
2745.01513	1112.75
2747.60079	1103.55
2750.18486	1107.15
2752.76733	1116.05
2755.3482	1126.05
2757.92747	1127.55
2760.50515	1128.75
2763.08123	1122.35
2765.65573	1132.95
2768.22863	1132.65
2770.79994	1135.25
2773.36967	1127.55
2775.9378	1136.05
2778.50435	1125.25
2781.06932	1124.65
2783.6327	1128.65
2786.1945	1137.05
2788.75471	1131.55
2791.31335	1149.65
2793.87041	1141.95
2796.42589	1135.95
2798.97979	1134.35
2801.53212	1135.35
2804.08288	1143.35
2806.63206	1135.75
2809.17967	1137.25
2811.72571	1130.55
2814.27018	1139.95
2816.81308	1131.25
2819.35442	1123.25
2821.89419	1128.15
2824.43239	1130.05
2826.96904	1127.05
2829.50412	1126.45
2832.03763	1119.85
2834.56959	1130.75
2837.1	1132.45
2839.62884	1139.55
2842.15613	1149.45
2844.68186	1163.65
2847.20604	1176.35
2849.72867	1193.15
2852.24974	1210.75
2854.76927	1233.25
2857.28724	1245.55
2859.80367	1274.15
2862.31855	1309.65
2864.83189	1332.85
2867.34368	1364.45
2869.85393	1391.05
2872.36264	1418.75
2874.8698	1458.95
2877.37543	1478.15
2879.87952	1515.75
2882.38207	1544.95
2884.88308	1559.85
2887.38256	1587.85
2889.88051	1619.35
2892.37692	1628.05
2894.8718	1645.85
2897.36515	1661.75
2899.85698	1664.95
2902.34727	1679.55
2904.83604	1682.15
2907.32328	1672.25
2909.809	1673.55
2912.29319	1683.45
2914.77587	1661.85
2917.25702	1669.05
2919.73665	1674.95
2922.21476	1663.95
2924.69136	1675.75
2927.16644	1673.55
2929.64	1658.55
2932.11205	1652.85
2934.58258	1640.55
2937.05161	1632.45
2939.51912	1603.25
2941.98513	1594.85
2944.44962	1562.85
2946.91261	1538.65
2949.37409	1518.05
2951.83407	1488.05
2954.29254	1464.15
2956.74951	1443.35
2959.20498	1425.05
2961.65895	1410.15
2964.11142	1391.45
2966.56239	1371.15
2969.01186	1359.45
2971.45984	1338.75
2973.90632	1322.65
2976.35131	1309.15
2978.7948	1289.65
2981.23681	1269.15
2983.67732	1246.95
2986.11635	1226.35
2988.55388	1203.95
2990.98993	1196.25
2993.4245	1174.65
2995.85758	1171.95
2998.28917	1167.35
3000.71928	1150.15
3003.14791	1150.25
3005.57506	1147.15
3008.00073	1137.55
3010.42493	1129.05
3012.84764	1132.85
3015.26888	1130.85
3017.68865	1126.65
3020.10694	1117.65
3022.52376	1119.25
3024.9391	1114.85
3027.35298	1116.75
3029.76539	1106.15
3032.17632	1107.75
3034.5858	1112.65
3036.9938	1106.45
3039.40034	1106.05
3041.80542	1117.25
3044.20903	1110.35
3046.61118	1105.65
3049.01187	1101.45
3051.4111	1101.95
3053.80888	1111.55
3056.20519	1106.25
3058.60005	1124.05
3060.99345	1117.75
3063.3854	1121.15
3065.7759	1121.25
3068.16494	1123.05
3070.55254	1127.65
3072.93868	1125.95
3075.32338	1132.65
3077.70662	1130.05
3080.08842	1135.15
3082.46878	1146.15
3084.84769	1156.15
3087.22515	1152.05
3089.60118	1165.75
3091.97576	1168.65
3094.3489	1164.35
3096.72061	1181.75
3099.09087	1184.95
3101.4597	1181.65
3103.82709	1202.45
3106.19305	1201.75
3108.55757	1210.55
3110.92066	1217.85
3113.28232	1208.55
3115.64255	1219.45
3118.00134	1216.95
3120.35871	1231.25
3122.71466	1241.55
3125.06917	1251.15
3127.42226	1246.25
3129.77393	1263.55
3132.12417	1268.15
3134.47299	1273.65
3136.82039	1281.25
3139.16636	1287.75
3141.51092	1308.35
3143.85406	1298.85
3146.19579	1314.65
3148.53609	1329.65
3150.87499	1333.25
3153.21246	1341.25
3155.54853	1362.85
3157.88318	1369.45
3160.21642	1371.15
3162.54826	1383.05
3164.87868	1377.25
3167.2077	1396.95
3169.5353	1395.95
3171.86151	1412.45
3174.18631	1410.75
3176.5097	1423.35
3178.83169	1429.65
3181.15228	1439.85
3183.47147	1438.05
3185.78926	1442.65
3188.10565	1454.55
3190.42065	1460.75
3192.73424	1470.65
3195.04645	1477.15
3197.35725	1479.95
3199.66667	1479.25
3201.97469	1493.55
3204.28132	1497.15
3206.58656	1504.85
3208.8904	1519.15
3211.19287	1512.75
3213.49394	1529.25
3215.79363	1531.85
3218.09193	1537.65
3220.38884	1540.45
3222.68438	1545.45
3224.97853	1545.05
3227.2713	1544.55
3229.56269	1552.25
3231.8527	1562.15
3234.14133	1553.75
3236.42858	1554.85
3238.71446	1571.25
3240.99896	1572.75
3243.28209	1573.25
3245.56384	1570.95
3247.84423	1576.55
3250.12324	1590.65
3252.40088	1586.35
3254.67715	1583.95
3256.95205	1592.65
3259.22558	1598.55
3261.49775	1592.65
3263.76855	1601.85
3266.03799	1589.85
3268.30606	1596.65
3270.57277	1594.85
3272.83812	1587.35
3275.10211	1590.85
3277.36474	1588.35
3279.62601	1583.25
3281.88593	1570.25
3284.14448	1588.25
3286.40168	1577.75
3288.65753	1577.15
3290.91202	1569.45
3293.16516	1560.85
3295.41695	1551.45
3297.66738	1537.65
3299.91647	1549.05
3302.16421	1531.35
3304.4106	1525.25
3306.65564	1526.45
3308.89933	1505.15
3311.14169	1500.95
3313.38269	1495.05
3315.62236	1485.65
3317.86068	1477.55
3320.09766	1461.95
3322.3333	1456.65
3324.5676	1452.75
3326.80056	1424.15
3329.03219	1428.35
3331.26248	0.95
3333.49143	0.35
3335.71905	0.45
