Data from AgNP_FTO_APTES_CRN_0uM_R6G_10uM_NaF_0.1M_Addition_RamanShift__34__12-09-22-937.txt Node

Date: Wed Dec 15 12:09:22 GMT 2021
User: TCL
Spectrometer: QEP01345
Trigger mode: 4
Integration Time (sec): 7.000000E0
Scans to average: 10
Electric dark correction enabled: true
Nonlinearity correction enabled: false
Boxcar width: 0
XAxis mode: Raman Shifts
Number of Pixels in Spectrum: 1044
>>>>>Begin Spectral Data<<<<<
46.04893	1.0125
50.45542	-0.0875
54.85868	-1.0875
59.25871	0.9125
63.6555	59.0125
68.04907	71.0125
72.43941	71.8125
76.82654	83.2125
81.21044	80.6125
85.59113	88.6125
89.96862	92.3125
94.34289	89.5125
98.71396	103.4125
103.08183	107.5125
107.4465	105.7125
111.80798	108.5125
116.16626	107.8125
120.52136	108.1125
124.87327	104.2125
129.222	107.4125
133.56755	103.7125
137.90993	106.4125
142.24913	104.9125
146.58517	108.1125
150.91804	111.7125
155.24774	113.5125
159.57429	128.4125
163.89768	139.6125
168.21792	158.0125
172.53501	201.4125
176.84895	253.1125
181.15975	323.4125
185.46741	417.3125
189.77193	549.7125
194.07331	711.1125
198.37157	904.5125
202.6667	1096.4125
206.9587	1277.3125
211.24758	1453.5125
215.53334	1640.3125
219.81599	1820.7125
224.09553	2035.6125
228.37195	2268.0125
232.64527	2522.7125
236.91549	2796.0125
241.18261	3032.7125
245.44663	3260.7125
249.70755	3419.8125
253.96539	3563.7125
258.22014	3695.3125
262.4718	3797.6125
266.72039	3865.1125
270.96589	3870.4125
275.20832	3868.5125
279.44768	3807.6125
283.68397	3722.1125
287.91719	3668.6125
292.14735	3620.3125
296.37445	3652.1125
300.59849	3714.9125
304.81948	3838.8125
309.03742	3924.3125
313.25231	3898.7125
317.46415	3736.0125
321.67296	3501.0125
325.87872	3334.8125
330.08145	3231.2125
334.28114	3230.6125
338.47781	3266.0125
342.67145	3333.4125
346.86207	3470.9125
351.04966	3670.5125
355.23424	3857.8125
359.4158	4026.2125
363.59435	4117.9125
367.76989	4160.5125
371.94243	4153.5125
376.11196	4145.4125
380.27849	4121.6125
384.44203	4090.1125
388.60257	4024.4125
392.76012	3990.9125
396.91468	3999.0125
401.06626	4085.6125
405.21485	4152.9125
409.36047	4112.8125
413.50311	3941.9125
417.64277	3781.6125
421.77947	3695.7125
425.9132	3647.5125
430.04396	3659.1125
434.17176	3692.2125
438.2966	3741.9125
442.41849	3861.6125
446.53742	3989.5125
450.6534	4096.2125
454.76644	4157.0125
458.87653	4147.1125
462.98368	4122.7125
467.08789	4042.7125
471.18916	3972.5125
475.2875	3887.0125
479.38291	3820.1125
483.4754	3770.8125
487.56496	3718.5125
491.6516	3686.7125
495.73531	3670.4125
499.81612	3694.9125
503.89401	3721.2125
507.96899	3779.8125
512.04106	3861.2125
516.11023	3944.4125
520.1765	4012.1125
524.23987	4024.4125
528.30034	3951.9125
532.35792	3860.4125
536.41261	3763.1125
540.46441	3655.7125
544.51333	3579.8125
548.55936	3568.9125
552.60252	3617.6125
556.64279	3690.1125
560.6802	3711.6125
564.71473	3739.1125
568.7464	3826.5125
572.7752	3847.5125
576.80114	3725.5125
580.82422	3600.5125
584.84444	3525.9125
588.86181	3543.0125
592.87633	3608.1125
596.888	3671.7125
600.89682	3773.2125
604.9028	4083.0125
608.90594	4994.4125
612.90624	6218.3125
616.90371	6073.7125
620.89834	4483.5125
624.89015	3670.0125
628.87913	3488.6125
632.86528	3449.9125
636.84862	3481.1125
640.82913	3460.7125
644.80683	3366.7125
648.78172	3325.4125
652.75379	3404.9125
656.72306	3581.4125
660.68952	3746.1125
664.65319	3665.1125
668.61405	3430.9125
672.57211	3320.7125
676.52738	3319.4125
680.47986	3308.5125
684.42955	3314.2125
688.37646	3312.1125
692.32058	3364.4125
696.26192	3407.3125
700.20048	3487.9125
704.13626	3579.1125
708.06928	3570.8125
711.99952	3513.6125
715.927	3477.8125
719.85171	3453.9125
723.77365	3420.6125
727.69284	3381.4125
731.60928	3342.7125
735.52295	3347.4125
739.43388	3359.3125
743.34206	3370.3125
747.24749	3383.5125
751.15017	3400.0125
755.05012	3449.2125
758.94733	3564.9125
762.8418	3855.6125
766.73354	4335.2125
770.62254	4928.9125
774.50882	5305.9125
778.39237	5260.4125
782.27321	4683.6125
786.15132	4048.5125
790.02671	3686.4125
793.89938	3538.9125
797.76935	3467.1125
801.6366	3439.8125
805.50115	3402.2125
809.36299	3372.4125
813.22213	3376.9125
817.07857	3369.6125
820.93231	3365.6125
824.78336	3354.1125
828.63172	3386.5125
832.47738	3390.8125
836.32036	3398.3125
840.16066	3403.3125
843.99827	3395.1125
847.8332	3378.7125
851.66546	3385.8125
855.49504	3386.2125
859.32195	3365.7125
863.1462	3331.3125
866.96777	3288.3125
870.78668	3274.3125
874.60293	3265.0125
878.41652	3262.1125
882.22745	3272.0125
886.03573	3279.9125
889.84136	3302.3125
893.64433	3298.5125
897.44466	3331.3125
901.24235	3341.2125
905.0374	3357.3125
908.8298	3356.9125
912.61957	3376.8125
916.40671	3428.4125
920.19121	3470.8125
923.97308	3511.1125
927.75233	3572.0125
931.52895	3610.0125
935.30295	3592.4125
939.07433	3554.8125
942.84309	3470.6125
946.60924	3411.9125
950.37278	3372.9125
954.13371	3351.0125
957.89203	3297.3125
961.64774	3270.5125
965.40086	3237.8125
969.15137	3211.7125
972.89929	3205.1125
976.64461	3185.0125
980.38733	3167.0125
984.12747	3167.1125
987.86502	3165.6125
991.59999	3165.5125
995.33237	3184.8125
999.06217	3196.3125
1002.78939	3237.9125
1006.51404	3278.8125
1010.23611	3308.9125
1013.95561	3332.6125
1017.67255	3316.0125
1021.38692	3271.5125
1025.09872	3252.9125
1028.80796	3234.4125
1032.51465	3275.2125
1036.21877	3372.1125
1039.92035	3508.5125
1043.61937	3544.8125
1047.31584	3506.5125
1051.00976	3446.3125
1054.70114	3367.5125
1058.38998	3309.9125
1062.07627	3289.5125
1065.76003	3305.4125
1069.44126	3339.5125
1073.11995	3422.8125
1076.79611	3523.6125
1080.46974	3578.9125
1084.14085	3589.4125
1087.80943	3560.0125
1091.47549	3492.1125
1095.13903	3379.7125
1098.80005	3216.9125
1102.45857	3102.7125
1106.11456	3069.4125
1109.76805	3088.7125
1113.41903	3165.3125
1117.06751	3264.3125
1120.71348	3389.4125
1124.35696	3540.9125
1127.99793	3649.8125
1131.63641	3620.5125
1135.2724	3419.1125
1138.90589	3248.2125
1142.5369	3141.9125
1146.16542	3073.1125
1149.79145	3033.7125
1153.415	3032.5125
1157.03607	3065.9125
1160.65467	3158.8125
1164.27079	3264.9125
1167.88443	3441.5125
1171.49561	3735.9125
1175.10432	4185.1125
1178.71056	4784.9125
1182.31434	5197.4125
1185.91565	5292.8125
1189.51451	5173.2125
1193.11091	4900.7125
1196.70485	4525.4125
1200.29634	4209.7125
1203.88538	3919.0125
1207.47197	3605.6125
1211.05612	3387.3125
1214.63782	3275.9125
1218.21708	3251.7125
1221.79391	3246.7125
1225.36829	3257.9125
1228.94024	3268.1125
1232.50976	3291.8125
1236.07685	3296.7125
1239.6415	3317.1125
1243.20374	3311.5125
1246.76355	3332.3125
1250.32093	3375.7125
1253.8759	3443.8125
1257.42845	3550.6125
1260.97859	3666.0125
1264.52631	3803.9125
1268.07163	3933.9125
1271.61453	4032.4125
1275.15503	4073.1125
1278.69312	4073.4125
1282.22882	4078.4125
1285.76211	4149.2125
1289.29301	4287.2125
1292.82151	4424.6125
1296.34761	4569.3125
1299.87133	4770.6125
1303.39266	5052.2125
1306.9116	5523.1125
1310.42815	6053.4125
1313.94233	6359.7125
1317.45412	6181.5125
1320.96354	5704.8125
1324.47058	5179.9125
1327.97525	4745.8125
1331.47754	4511.4125
1334.97747	4448.4125
1338.47502	4523.4125
1341.97022	4638.4125
1345.46305	4879.4125
1348.95352	5295.3125
1352.44163	5874.3125
1355.92738	6654.5125
1359.41078	7597.8125
1362.89183	8321.1125
1366.37053	8108.1125
1369.84688	7090.4125
1373.32088	6043.3125
1376.79254	5221.3125
1380.26186	4708.4125
1383.72883	4370.2125
1387.19347	4125.5125
1390.65578	3908.3125
1394.11575	3712.5125
1397.57339	3605.4125
1401.0287	3556.7125
1404.48168	3515.0125
1407.93234	3515.0125
1411.38068	3521.9125
1414.82669	3529.3125
1418.27039	3512.2125
1421.71177	3488.7125
1425.15083	3469.0125
1428.58758	3486.7125
1432.02203	3545.8125
1435.45416	3609.9125
1438.88399	3652.0125
1442.31151	3656.6125
1445.73673	3620.2125
1449.15965	3584.5125
1452.58027	3504.6125
1455.9986	3445.3125
1459.41463	3389.7125
1462.82837	3406.7125
1466.23982	3469.4125
1469.64898	3527.6125
1473.05586	3571.2125
1476.46045	3604.2125
1479.86276	3632.8125
1483.26279	3669.2125
1486.66054	3729.6125
1490.05602	3783.9125
1493.44922	3901.9125
1496.84016	4163.1125
1500.22882	4610.7125
1503.61521	5237.2125
1506.99934	5932.1125
1510.38121	6536.9125
1513.76081	6793.3125
1517.13816	6406.4125
1520.51324	5570.7125
1523.88607	4751.3125
1527.25665	4245.3125
1530.62498	3994.7125
1533.99105	3877.4125
1537.35488	3798.5125
1540.71647	3751.7125
1544.07581	3720.1125
1547.4329	3721.3125
1550.78776	3721.0125
1554.14038	3702.3125
1557.49077	3717.8125
1560.83892	3761.8125
1564.18484	3869.7125
1567.52853	4031.7125
1570.86999	4280.7125
1574.20922	4502.6125
1577.54624	4613.6125
1580.88103	4422.0125
1584.2136	4060.9125
1587.54395	3747.8125
1590.87208	3659.3125
1594.19801	3766.7125
1597.52172	3983.1125
1600.84321	4104.0125
1604.16251	3979.1125
1607.47959	3727.7125
1610.79447	3458.7125
1614.10715	3204.6125
1617.41763	2999.6125
1620.7259	2897.1125
1624.03199	2837.2125
1627.33587	2822.8125
1630.63757	2860.0125
1633.93707	2925.6125
1637.23439	3057.7125
1640.52951	3314.1125
1643.82246	3672.4125
1647.11321	4105.2125
1650.40179	4425.7125
1653.68819	4336.0125
1656.97241	3826.0125
1660.25446	3232.8125
1663.53433	2808.9125
1666.81203	2578.9125
1670.08756	2443.3125
1673.36092	2374.6125
1676.63211	2311.7125
1679.90115	2283.1125
1683.16801	2257.3125
1686.43272	2239.7125
1689.69527	2217.5125
1692.95567	2194.1125
1696.2139	2179.5125
1699.46999	2162.8125
1702.72392	2149.3125
1705.97571	2135.7125
1709.22535	2127.5125
1712.47284	2131.7125
1715.71819	2125.5125
1718.96139	2117.2125
1722.20246	2108.8125
1725.44139	2097.4125
1728.67818	2061.8125
1731.91284	2033.7125
1735.14537	2002.1125
1738.37576	1981.2125
1741.60403	1962.8125
1744.83017	1938.5125
1748.05418	1934.0125
1751.27607	1922.1125
1754.49584	1908.1125
1757.71349	1899.4125
1760.92903	1883.6125
1764.14244	1863.1125
1767.35375	1878.7125
1770.56294	1866.0125
1773.77002	1854.9125
1776.97499	1849.1125
1780.17785	1839.5125
1783.37861	1842.2125
1786.57727	1827.2125
1789.77382	1835.1125
1792.96828	1822.2125
1796.16064	1820.2125
1799.3509	1818.0125
1802.53907	1807.6125
1805.72514	1803.6125
1808.90913	1790.9125
1812.09102	1794.3125
1815.27083	1782.0125
1818.44856	1769.2125
1821.6242	1775.8125
1824.79776	1782.7125
1827.96924	1765.8125
1831.13864	1763.5125
1834.30597	1761.2125
1837.47122	1758.6125
1840.6344	1743.7125
1843.7955	1741.9125
1846.95454	1740.9125
1850.11151	1732.4125
1853.26642	1725.6125
1856.41926	1730.6125
1859.57004	1726.6125
1862.71876	1727.8125
1865.86542	1712.4125
1869.01003	1707.8125
1872.15258	1716.0125
1875.29308	1714.9125
1878.43152	1705.1125
1881.56792	1710.8125
1884.70227	1717.9125
1887.83457	1715.5125
1890.96482	1710.3125
1894.09304	1703.6125
1897.21921	1694.2125
1900.34335	1703.8125
1903.46544	1696.1125
1906.58551	1699.1125
1909.70353	1692.4125
1912.81953	1691.4125
1915.93349	1698.5125
1919.04543	1689.4125
1922.15534	1678.9125
1925.26322	1676.6125
1928.36908	1667.5125
1931.47292	1669.2125
1934.57473	1663.2125
1937.67453	1659.0125
1940.77232	1642.6125
1943.86808	1633.4125
1946.96184	1618.0125
1950.05358	1618.0125
1953.14331	1616.8125
1956.23103	1601.1125
1959.31675	1607.0125
1962.40046	1597.8125
1965.48217	1602.6125
1968.56188	1602.6125
1971.63959	1587.9125
1974.7153	1583.2125
1977.78901	1572.2125
1980.86073	1579.3125
1983.93046	1561.7125
1986.99819	1553.8125
1990.06394	1546.0125
1993.1277	1540.4125
1996.18947	1539.8125
1999.24925	1535.8125
2002.30706	1519.0125
2005.36288	1532.5125
2008.41672	1525.8125
2011.46859	1507.0125
2014.51848	1509.9125
2017.56639	1501.3125
2020.61233	1500.1125
2023.6563	1482.2125
2026.6983	1486.3125
2029.73833	1477.8125
2032.7764	1471.2125
2035.8125	1473.8125
2038.84664	1472.8125
2041.87881	1467.4125
2044.90903	1462.0125
2047.93729	1450.5125
2050.96359	1455.6125
2053.98794	1453.1125
2057.01034	1448.7125
2060.03078	1448.9125
2063.04927	1443.5125
2066.06582	1435.0125
2069.08042	1444.0125
2072.09307	1448.2125
2075.10378	1443.5125
2078.11255	1433.7125
2081.11938	1443.3125
2084.12426	1442.3125
2087.12722	1428.2125
2090.12824	1435.3125
2093.12732	1439.7125
2096.12447	1432.4125
2099.11969	1427.8125
2102.11299	1434.3125
2105.10435	1435.9125
2108.09379	1438.3125
2111.08131	1431.9125
2114.0669	1431.7125
2117.05057	1427.4125
2120.03233	1433.6125
2123.01216	1435.0125
2125.99008	1431.5125
2128.96609	1429.2125
2131.94018	1426.6125
2134.91236	1429.1125
2137.88263	1428.9125
2140.851	1437.1125
2143.81746	1433.5125
2146.78201	1428.5125
2149.74466	1433.4125
2152.7054	1429.8125
2155.66425	1435.3125
2158.6212	1418.9125
2161.57625	1431.2125
2164.52941	1421.0125
2167.48067	1422.7125
2170.43004	1426.4125
2173.37752	1417.9125
2176.32311	1412.9125
2179.26681	1423.4125
2182.20863	1416.4125
2185.14856	1428.4125
2188.08661	1417.1125
2191.02278	1425.0125
2193.95707	1412.2125
2196.88948	1405.8125
2199.82001	1402.6125
2202.74867	1403.8125
2205.67545	1396.2125
2208.60037	1397.6125
2211.52341	1391.7125
2214.44458	1387.4125
2217.36388	1388.1125
2220.28132	1381.7125
2223.1969	1373.3125
2226.11061	1376.8125
2229.02246	1366.7125
2231.93245	1363.6125
2234.84058	1355.7125
2237.74686	1352.2125
2240.65128	1361.0125
2243.55385	1358.6125
2246.45456	1344.6125
2249.35343	1349.2125
2252.25044	1344.3125
2255.14561	1353.9125
2258.03893	1343.8125
2260.93041	1343.6125
2263.82004	1341.3125
2266.70783	1330.8125
2269.59378	1326.6125
2272.4779	1330.6125
2275.36017	1317.9125
2278.24061	1318.9125
2281.11922	1319.2125
2283.996	1312.2125
2286.87094	1314.6125
2289.74405	1307.5125
2292.61534	1299.4125
2295.4848	1296.9125
2298.35243	1293.6125
2301.21824	1287.7125
2304.08223	1288.5125
2306.94439	1291.7125
2309.80474	1285.6125
2312.66327	1291.6125
2315.51999	1280.3125
2318.37489	1281.2125
2321.22797	1283.1125
2324.07925	1275.6125
2326.92871	1284.2125
2329.77637	1280.9125
2332.62222	1272.7125
2335.46626	1264.6125
2338.3085	1271.4125
2341.14893	1267.1125
2343.98756	1266.8125
2346.8244	1260.8125
2349.65943	1265.9125
2352.49267	1265.3125
2355.32411	1256.6125
2358.15376	1260.0125
2360.98161	1259.9125
2363.80768	1267.1125
2366.63195	1276.7125
2369.45444	1271.4125
2372.27514	1271.8125
2375.09405	1276.0125
2377.91118	1261.6125
2380.72652	1257.2125
2383.54009	1259.3125
2386.35187	1252.2125
2389.16188	1249.3125
2391.97011	1242.4125
2394.77657	1241.7125
2397.58125	1230.4125
2400.38416	1235.8125
2403.18529	1223.0125
2405.98466	1220.5125
2408.78226	1219.4125
2411.57809	1221.0125
2414.37216	1213.1125
2417.16446	1216.5125
2419.955	1215.7125
2422.74378	1203.5125
2425.5308	1203.7125
2428.31606	1207.4125
2431.09956	1203.0125
2433.88131	1208.5125
2436.6613	1206.6125
2439.43954	1214.9125
2442.21603	1195.7125
2444.99077	1207.6125
2447.76377	1203.3125
2450.53501	1200.5125
2453.30451	1199.7125
2456.07226	1198.7125
2458.83827	1205.0125
2461.60254	1194.9125
2464.36507	1188.8125
2467.12586	1195.0125
2469.88492	1189.7125
2472.64224	1185.1125
2475.39782	1186.1125
2478.15167	1197.8125
2480.90379	1191.2125
2483.65417	1194.7125
2486.40283	1201.5125
2489.14976	1199.3125
2491.89497	1199.8125
2494.63845	1203.7125
2497.3802	1200.7125
2500.12024	1202.5125
2502.85855	1202.7125
2505.59514	1196.8125
2508.33002	1188.2125
2511.06318	1184.0125
2513.79462	1185.0125
2516.52435	1177.1125
2519.25237	1168.1125
2521.97867	1167.0125
2524.70327	1168.6125
2527.42616	1158.9125
2530.14734	1166.5125
2532.86681	1165.7125
2535.58458	1161.1125
2538.30065	1170.0125
2541.01501	1158.5125
2543.72768	1172.0125
2546.43864	1168.1125
2549.14791	1163.3125
2551.85548	1169.7125
2554.56136	1161.0125
2557.26554	1163.8125
2559.96803	1155.1125
2562.66883	1158.3125
2565.36794	1164.4125
2568.06536	1167.9125
2570.7611	1168.4125
2573.45514	1164.7125
2576.14751	1159.1125
2578.83819	1164.5125
2581.52719	1159.5125
2584.21451	1150.7125
2586.90015	1161.3125
2589.58411	1160.5125
2592.2664	1158.9125
2594.94701	1157.9125
2597.62594	1148.5125
2600.30321	1155.4125
2602.9788	1158.5125
2605.65273	1150.0125
2608.32498	1153.6125
2610.99557	1152.8125
2613.66449	1155.2125
2616.33175	1158.5125
2618.99734	1159.0125
2621.66128	1155.5125
2624.32355	1152.3125
2626.98416	1150.2125
2629.64311	1159.2125
2632.30041	1155.1125
2634.95605	1149.5125
2637.61004	1156.7125
2640.26238	1156.3125
2642.91306	1161.9125
2645.56209	1146.4125
2648.20948	1148.1125
2650.85521	1165.4125
2653.4993	1163.6125
2656.14175	1172.7125
2658.78255	1177.5125
2661.42171	1188.3125
2664.05923	1188.2125
2666.6951	1193.7125
2669.32934	1203.7125
2671.96194	1205.2125
2674.59291	1215.7125
2677.22224	1209.5125
2679.84993	1218.9125
2682.476	1221.6125
2685.10043	1226.0125
2687.72324	1231.5125
2690.34441	1238.5125
2692.96396	1243.6125
2695.58188	1246.3125
2698.19818	1261.2125
2700.81285	1271.2125
2703.4259	1285.7125
2706.03733	1291.9125
2708.64714	1300.2125
2711.25533	1306.3125
2713.86191	1317.9125
2716.46687	1328.7125
2719.07021	1346.4125
2721.67194	1360.8125
2724.27206	1363.5125
2726.87057	1373.0125
2729.46747	1374.6125
2732.06276	1383.1125
2734.65644	1392.9125
2737.24852	1396.2125
2739.83899	1414.6125
2742.42786	1431.9125
2745.01513	1437.0125
2747.60079	1449.6125
2750.18486	1472.4125
2752.76733	1479.7125
2755.3482	1504.3125
2757.92747	1519.3125
2760.50515	1528.3125
2763.08123	1532.7125
2765.65573	1564.1125
2768.22863	1593.9125
2770.79994	1615.5125
2773.36967	1636.3125
2775.9378	1666.0125
2778.50435	1684.0125
2781.06932	1718.4125
2783.6327	1744.9125
2786.1945	1793.9125
2788.75471	1820.2125
2791.31335	1861.0125
2793.87041	1889.7125
2796.42589	1933.8125
2798.97979	1975.2125
2801.53212	2010.3125
2804.08288	2071.4125
2806.63206	2100.4125
2809.17967	2151.8125
2811.72571	2193.3125
2814.27018	2236.3125
2816.81308	2269.6125
2819.35442	2297.6125
2821.89419	2318.5125
2824.43239	2331.1125
2826.96904	2333.1125
2829.50412	2343.0125
2832.03763	2331.7125
2834.56959	2334.0125
2837.1	2332.4125
2839.62884	2349.0125
2842.15613	2373.7125
2844.68186	2451.2125
2847.20604	2504.8125
2849.72867	2544.6125
2852.24974	2562.1125
2854.76927	2571.9125
2857.28724	2550.8125
2859.80367	2528.2125
2862.31855	2506.9125
2864.83189	2473.7125
2867.34368	2449.1125
2869.85393	2424.3125
2872.36264	2400.9125
2874.8698	2371.7125
2877.37543	2346.6125
2879.87952	2316.6125
2882.38207	2297.1125
2884.88308	2279.8125
2887.38256	2259.3125
2889.88051	2240.6125
2892.37692	2231.6125
2894.8718	2211.9125
2897.36515	2215.5125
2899.85698	2191.2125
2902.34727	2190.0125
2904.83604	2170.5125
2907.32328	2157.0125
2909.809	2148.3125
2912.29319	2137.8125
2914.77587	2117.9125
2917.25702	2098.7125
2919.73665	2091.3125
2922.21476	2081.9125
2924.69136	2068.2125
2927.16644	2057.0125
2929.64	2040.6125
2932.11205	1999.4125
2934.58258	1974.9125
2937.05161	1938.4125
2939.51912	1900.8125
2941.98513	1836.6125
2944.44962	1776.7125
2946.91261	1706.7125
2949.37409	1649.3125
2951.83407	1595.2125
2954.29254	1565.2125
2956.74951	1517.0125
2959.20498	1482.5125
2961.65895	1448.4125
2964.11142	1425.8125
2966.56239	1403.5125
2969.01186	1370.9125
2971.45984	1349.6125
2973.90632	1340.1125
2976.35131	1315.9125
2978.7948	1285.9125
2981.23681	1279.8125
2983.67732	1260.8125
2986.11635	1241.7125
2988.55388	1228.6125
2990.98993	1205.3125
2993.4245	1193.8125
2995.85758	1188.3125
2998.28917	1168.1125
3000.71928	1162.3125
3003.14791	1151.7125
3005.57506	1142.9125
3008.00073	1128.5125
3010.42493	1133.4125
3012.84764	1124.8125
3015.26888	1122.9125
3017.68865	1123.6125
3020.10694	1121.6125
3022.52376	1120.7125
3024.9391	1112.6125
3027.35298	1116.9125
3029.76539	1121.3125
3032.17632	1115.0125
3034.5858	1113.0125
3036.9938	1122.0125
3039.40034	1118.8125
3041.80542	1125.3125
3044.20903	1116.9125
3046.61118	1117.4125
3049.01187	1114.1125
3051.4111	1119.0125
3053.80888	1115.4125
3056.20519	1124.0125
3058.60005	1130.9125
3060.99345	1125.8125
3063.3854	1127.8125
3065.7759	1133.5125
3068.16494	1138.1125
3070.55254	1134.0125
3072.93868	1140.8125
3075.32338	1132.0125
3077.70662	1133.8125
3080.08842	1120.9125
3082.46878	1135.7125
3084.84769	1126.9125
3087.22515	1126.4125
3089.60118	1133.6125
3091.97576	1132.2125
3094.3489	1138.3125
3096.72061	1144.0125
3099.09087	1146.1125
3101.4597	1135.5125
3103.82709	1141.1125
3106.19305	1139.8125
3108.55757	1155.5125
3110.92066	1151.7125
3113.28232	1160.8125
3115.64255	1168.5125
3118.00134	1176.3125
3120.35871	1175.2125
3122.71466	1182.2125
3125.06917	1185.1125
3127.42226	1183.5125
3129.77393	1203.1125
3132.12417	1198.0125
3134.47299	1219.3125
3136.82039	1224.4125
3139.16636	1224.9125
3141.51092	1242.1125
3143.85406	1243.5125
3146.19579	1251.8125
3148.53609	1261.2125
3150.87499	1273.7125
3153.21246	1272.9125
3155.54853	1284.2125
3157.88318	1288.7125
3160.21642	1293.9125
3162.54826	1311.3125
3164.87868	1321.5125
3167.2077	1325.0125
3169.5353	1333.4125
3171.86151	1339.9125
3174.18631	1339.8125
3176.5097	1348.0125
3178.83169	1350.5125
3181.15228	1362.4125
3183.47147	1377.7125
3185.78926	1375.1125
3188.10565	1383.1125
3190.42065	1387.6125
3192.73424	1396.6125
3195.04645	1405.1125
3197.35725	1403.8125
3199.66667	1410.0125
3201.97469	1423.1125
3204.28132	1421.1125
3206.58656	1440.3125
3208.8904	1438.2125
3211.19287	1448.7125
3213.49394	1440.2125
3215.79363	1451.0125
3218.09193	1461.2125
3220.38884	1462.3125
3222.68438	1455.6125
3224.97853	1472.2125
3227.2713	1480.3125
3229.56269	1478.9125
3231.8527	1479.9125
3234.14133	1477.9125
3236.42858	1482.5125
3238.71446	1485.3125
3240.99896	1487.1125
3243.28209	1483.2125
3245.56384	1491.5125
3247.84423	1493.5125
3250.12324	1508.6125
3252.40088	1511.8125
3254.67715	1515.9125
3256.95205	1502.0125
3259.22558	1528.8125
3261.49775	1518.3125
3263.76855	1517.6125
3266.03799	1519.8125
3268.30606	1524.5125
3270.57277	1524.2125
3272.83812	1525.3125
3275.10211	1535.3125
3277.36474	1540.9125
3279.62601	1541.4125
3281.88593	1535.2125
3284.14448	1539.3125
3286.40168	1536.1125
3288.65753	1541.0125
3290.91202	1538.2125
3293.16516	1520.4125
3295.41695	1513.1125
3297.66738	1504.0125
3299.91647	1490.9125
3302.16421	1479.0125
3304.4106	1475.8125
3306.65564	1460.3125
3308.89933	1460.1125
3311.14169	1441.4125
3313.38269	1428.0125
3315.62236	1422.1125
3317.86068	1403.8125
3320.09766	1402.0125
3322.3333	1389.9125
3324.5676	1387.2125
3326.80056	1363.8125
3329.03219	1364.6125
3331.26248	1.1125
3333.49143	-0.0875
3335.71905	-0.3875
