Data from AgNP_FTO_APTES_CRN_50uM_R6G_10uM_NaF_0.1M_Addition_RamanShift__5__17-51-48-061.txt Node

Date: Wed Dec 15 17:51:48 GMT 2021
User: TCL
Spectrometer: QEP01345
Trigger mode: 4
Integration Time (sec): 7.000000E0
Scans to average: 10
Electric dark correction enabled: true
Nonlinearity correction enabled: false
Boxcar width: 0
XAxis mode: Raman Shifts
Number of Pixels in Spectrum: 1044
>>>>>Begin Spectral Data<<<<<
46.04893	-0.525
50.45542	-1.625
54.85868	-1.225
59.25871	-0.825
63.6555	61.975
68.04907	66.075
72.43941	70.775
76.82654	71.075
81.21044	73.775
85.59113	78.775
89.96862	85.375
94.34289	83.175
98.71396	86.975
103.08183	89.475
107.4465	93.875
111.80798	95.275
116.16626	96.275
120.52136	103.075
124.87327	101.375
129.222	106.875
133.56755	107.075
137.90993	123.175
142.24913	133.875
146.58517	140.775
150.91804	165.175
155.24774	193.775
159.57429	239.175
163.89768	303.975
168.21792	394.675
172.53501	539.175
176.84895	748.675
181.15975	1043.275
185.46741	1467.475
189.77193	2016.375
194.07331	2679.875
198.37157	3458.875
202.6667	4266.375
206.9587	5074.675
211.24758	5849.975
215.53334	6641.675
219.81599	7477.775
224.09553	8401.275
228.37195	9422.175
232.64527	10506.775
236.91549	11713.375
241.18261	12903.775
245.44663	14016.675
249.70755	15039.775
253.96539	15934.875
258.22014	16692.375
262.4718	17331.775
266.72039	17702.475
270.96589	17949.575
275.20832	17979.975
279.44768	17850.075
283.68397	17661.375
287.91719	17515.875
292.14735	17396.975
296.37445	17384.775
300.59849	17440.675
304.81948	17440.875
309.03742	17431.775
313.25231	17317.675
317.46415	17088.275
321.67296	16755.975
325.87872	16437.075
330.08145	16324.075
334.28114	16261.475
338.47781	16369.275
342.67145	16574.575
346.86207	16788.075
351.04966	17082.075
355.23424	17347.175
359.4158	17593.475
363.59435	17720.375
367.76989	17828.175
371.94243	17934.275
376.11196	17998.775
380.27849	18094.875
384.44203	18174.975
388.60257	18302.575
392.76012	18527.875
396.91468	18729.975
401.06626	19003.875
405.21485	19190.975
409.36047	19167.275
413.50311	19017.175
417.64277	18918.475
421.77947	18904.475
425.9132	19011.175
430.04396	19124.375
434.17176	19178.475
438.2966	19307.275
442.41849	19522.075
446.53742	19968.175
450.6534	20470.075
454.76644	20833.975
458.87653	20938.875
462.98368	20823.675
467.08789	20554.075
471.18916	20319.575
475.2875	20080.175
479.38291	19932.775
483.4754	19791.875
487.56496	19610.075
491.6516	19350.675
495.73531	19147.075
499.81612	19096.475
503.89401	19248.375
507.96899	19315.675
512.04106	19345.075
516.11023	19217.975
520.1765	19114.475
524.23987	18969.775
528.30034	18895.175
532.35792	18789.675
536.41261	18554.075
540.46441	18316.975
544.51333	18359.875
548.55936	18493.875
552.60252	18864.375
556.64279	19280.075
560.6802	19530.475
564.71473	19663.475
568.7464	19826.675
572.7752	20204.575
576.80114	20689.775
580.82422	21242.475
584.84444	21956.175
588.86181	22766.075
592.87633	23264.575
596.888	23148.375
600.89682	22389.075
604.9028	22208.375
608.90594	23226.475
612.90624	24395.875
616.90371	23046.875
620.89834	20144.375
624.89015	18858.575
628.87913	18705.675
632.86528	18771.075
636.84862	18744.675
640.82913	18528.875
644.80683	18183.275
648.78172	17935.475
652.75379	17922.075
656.72306	18078.875
660.68952	18271.075
664.65319	18161.875
668.61405	17941.375
672.57211	17925.675
676.52738	17976.975
680.47986	17958.575
684.42955	17880.175
688.37646	17842.875
692.32058	17919.275
696.26192	18144.475
700.20048	18378.975
704.13626	18524.075
708.06928	18534.875
711.99952	18507.475
715.927	18487.075
719.85171	18540.675
723.77365	18460.075
727.69284	18241.275
731.60928	18046.475
735.52295	17957.875
739.43388	17961.175
743.34206	18009.675
747.24749	18103.475
751.15017	18269.175
755.05012	18540.275
758.94733	19002.975
762.8418	19732.675
766.73354	20875.475
770.62254	21928.375
774.50882	22100.975
778.39237	21187.775
782.27321	19972.675
786.15132	18978.475
790.02671	18343.075
793.89938	18060.375
797.76935	17946.875
801.6366	17940.075
805.50115	17905.475
809.36299	17817.575
813.22213	17740.475
817.07857	17673.675
820.93231	17603.875
824.78336	17491.675
828.63172	17516.475
832.47738	17490.975
836.32036	17571.575
840.16066	17599.575
843.99827	17623.975
847.8332	17558.475
851.66546	17497.175
855.49504	17456.675
859.32195	17467.775
863.1462	17423.075
866.96777	17402.475
870.78668	17367.775
874.60293	17378.875
878.41652	17384.275
882.22745	17464.475
886.03573	17497.275
889.84136	17533.775
893.64433	17423.675
897.44466	17339.675
901.24235	17316.775
905.0374	17258.675
908.8298	17256.575
912.61957	17290.975
916.40671	17448.675
920.19121	17621.475
923.97308	17755.075
927.75233	17784.675
931.52895	17709.675
935.30295	17481.975
939.07433	17239.675
942.84309	17027.875
946.60924	16909.775
950.37278	16879.875
954.13371	16864.575
957.89203	16822.975
961.64774	16781.575
965.40086	16786.175
969.15137	16735.275
972.89929	16681.075
976.64461	16638.575
980.38733	16632.175
984.12747	16714.475
987.86502	16787.175
991.59999	16933.975
995.33237	17080.275
999.06217	17421.275
1002.78939	17794.375
1006.51404	18089.875
1010.23611	18306.375
1013.95561	18488.275
1017.67255	18482.775
1021.38692	18299.675
1025.09872	18102.975
1028.80796	18003.075
1032.51465	18220.075
1036.21877	18510.475
1039.92035	18620.075
1043.61937	18588.875
1047.31584	18421.975
1051.00976	18221.875
1054.70114	18156.675
1058.38998	18324.975
1062.07627	18532.975
1065.76003	18894.975
1069.44126	19316.375
1073.11995	19757.175
1076.79611	20020.375
1080.46974	19938.475
1084.14085	19771.275
1087.80943	19594.675
1091.47549	19550.875
1095.13903	19430.575
1098.80005	19187.075
1102.45857	18788.375
1106.11456	18437.675
1109.76805	18299.075
1113.41903	18320.575
1117.06751	18372.175
1120.71348	18496.175
1124.35696	18647.175
1127.99793	18881.875
1131.63641	19003.475
1135.2724	18910.275
1138.90589	18845.475
1142.5369	18849.875
1146.16542	18925.975
1149.79145	18993.175
1153.415	19162.775
1157.03607	19401.675
1160.65467	19866.975
1164.27079	20667.575
1167.88443	21688.975
1171.49561	22823.875
1175.10432	24232.275
1178.71056	25945.475
1182.31434	27524.775
1185.91565	28177.175
1189.51451	27864.375
1193.11091	26994.475
1196.70485	26012.775
1200.29634	25033.675
1203.88538	24455.975
1207.47197	24115.275
1211.05612	23848.475
1214.63782	23417.675
1218.21708	22944.775
1221.79391	22447.875
1225.36829	22109.075
1228.94024	21848.375
1232.50976	21544.275
1236.07685	21249.175
1239.6415	21146.375
1243.20374	21111.075
1246.76355	21234.275
1250.32093	21594.375
1253.8759	21952.275
1257.42845	22514.775
1260.97859	23036.875
1264.52631	23615.275
1268.07163	24167.175
1271.61453	24772.675
1275.15503	25401.575
1278.69312	26025.775
1282.22882	26688.575
1285.76211	27423.075
1289.29301	28327.275
1292.82151	29444.875
1296.34761	30890.975
1299.87133	32575.575
1303.39266	34384.775
1306.9116	36100.775
1310.42815	37458.375
1313.94233	38189.475
1317.45412	38014.675
1320.96354	37312.175
1324.47058	36625.475
1327.97525	36038.875
1331.47754	35653.575
1334.97747	35344.275
1338.47502	35097.375
1341.97022	34641.075
1345.46305	34191.475
1348.95352	33863.475
1352.44163	34020.375
1355.92738	34845.875
1359.41078	36254.375
1362.89183	37324.075
1366.37053	36791.975
1369.84688	34204.075
1373.32088	30909.375
1376.79254	28605.875
1380.26186	27659.375
1383.72883	27540.875
1387.19347	27480.975
1390.65578	27137.975
1394.11575	27033.175
1397.57339	27242.775
1401.0287	27657.075
1404.48168	27993.775
1407.93234	27975.275
1411.38068	27559.675
1414.82669	26767.975
1418.27039	25731.875
1421.71177	24722.775
1425.15083	23868.175
1428.58758	23435.275
1432.02203	23635.075
1435.45416	24140.775
1438.88399	24838.975
1442.31151	25320.175
1445.73673	25619.675
1449.15965	25872.175
1452.58027	25899.675
1455.9986	25877.375
1459.41463	25947.775
1462.82837	26294.275
1466.23982	26755.075
1469.64898	27241.975
1473.05586	27623.675
1476.46045	27772.275
1479.86276	27678.475
1483.26279	27527.375
1486.66054	27394.675
1490.05602	27553.275
1493.44922	27820.175
1496.84016	28085.475
1500.22882	28451.175
1503.61521	29129.975
1506.99934	29920.875
1510.38121	30521.375
1513.76081	30547.975
1517.13816	29950.175
1520.51324	29053.175
1523.88607	28301.975
1527.25665	27982.975
1530.62498	27930.875
1533.99105	27866.175
1537.35488	27618.375
1540.71647	27140.675
1544.07581	26504.875
1547.4329	25896.675
1550.78776	25262.175
1554.14038	24855.475
1557.49077	24657.575
1560.83892	24540.175
1564.18484	24579.575
1567.52853	24795.875
1570.86999	25265.075
1574.20922	25959.575
1577.54624	26701.475
1580.88103	27149.975
1584.2136	27368.675
1587.54395	27678.275
1590.87208	28364.475
1594.19801	29601.475
1597.52172	30915.575
1600.84321	31322.175
1604.16251	30143.675
1607.47959	28007.375
1610.79447	25630.175
1614.10715	23524.075
1617.41763	21868.975
1620.7259	20835.575
1624.03199	20286.175
1627.33587	20302.075
1630.63757	20818.575
1633.93707	21972.175
1637.23439	23889.675
1640.52951	26671.475
1643.82246	29962.775
1647.11321	32607.675
1650.40179	33059.275
1653.68819	30862.775
1656.97241	27140.675
1660.25446	23550.475
1663.53433	20892.175
1666.81203	19128.175
1670.08756	18081.775
1673.36092	17324.575
1676.63211	16887.675
1679.90115	16539.675
1683.16801	16300.775
1686.43272	16136.975
1689.69527	16009.675
1692.95567	15866.875
1696.2139	15867.975
1699.46999	15813.675
1702.72392	15742.875
1705.97571	15757.975
1709.22535	15705.775
1712.47284	15660.475
1715.71819	15616.175
1718.96139	15583.475
1722.20246	15550.975
1725.44139	15483.775
1728.67818	15437.575
1731.91284	15315.875
1735.14537	15277.675
1738.37576	15216.175
1741.60403	15154.375
1744.83017	15131.275
1748.05418	15075.975
1751.27607	15063.375
1754.49584	15049.475
1757.71349	15058.975
1760.92903	15053.075
1764.14244	15019.975
1767.35375	15034.575
1770.56294	14990.675
1773.77002	14991.075
1776.97499	14952.675
1780.17785	14938.875
1783.37861	14897.375
1786.57727	14876.475
1789.77382	14843.175
1792.96828	14799.075
1796.16064	14775.675
1799.3509	14728.975
1802.53907	14736.375
1805.72514	14649.575
1808.90913	14647.475
1812.09102	14620.675
1815.27083	14599.275
1818.44856	14570.675
1821.6242	14566.875
1824.79776	14536.175
1827.96924	14533.575
1831.13864	14531.075
1834.30597	14582.175
1837.47122	14538.475
1840.6344	14543.975
1843.7955	14555.375
1846.95454	14521.475
1850.11151	14490.375
1853.26642	14495.075
1856.41926	14477.975
1859.57004	14488.175
1862.71876	14479.075
1865.86542	14451.775
1869.01003	14441.575
1872.15258	14430.375
1875.29308	14414.875
1878.43152	14394.675
1881.56792	14395.775
1884.70227	14371.175
1887.83457	14348.475
1890.96482	14332.275
1894.09304	14323.075
1897.21921	14288.075
1900.34335	14274.575
1903.46544	14271.075
1906.58551	14259.175
1909.70353	14224.575
1912.81953	14197.275
1915.93349	14180.075
1919.04543	14157.775
1922.15534	14133.075
1925.26322	14099.875
1928.36908	14075.275
1931.47292	14065.375
1934.57473	14000.175
1937.67453	13966.075
1940.77232	13949.075
1943.86808	13928.475
1946.96184	13907.375
1950.05358	13868.375
1953.14331	13824.675
1956.23103	13784.175
1959.31675	13780.375
1962.40046	13752.875
1965.48217	13679.275
1968.56188	13660.275
1971.63959	13614.575
1974.7153	13562.775
1977.78901	13517.175
1980.86073	13445.075
1983.93046	13459.775
1986.99819	13434.675
1990.06394	13373.075
1993.1277	13342.075
1996.18947	13270.375
1999.24925	13278.375
2002.30706	13232.775
2005.36288	13205.775
2008.41672	13171.875
2011.46859	13114.875
2014.51848	13096.675
2017.56639	13079.075
2020.61233	13035.175
2023.6563	13002.475
2026.6983	13029.875
2029.73833	12979.075
2032.7764	12935.775
2035.8125	12911.575
2038.84664	12881.675
2041.87881	12880.475
2044.90903	12823.975
2047.93729	12794.975
2050.96359	12838.375
2053.98794	12790.475
2057.01034	12824.675
2060.03078	12811.775
2063.04927	12792.975
2066.06582	12761.775
2069.08042	12775.475
2072.09307	12755.775
2075.10378	12716.075
2078.11255	12702.775
2081.11938	12741.675
2084.12426	12707.175
2087.12722	12724.875
2090.12824	12746.475
2093.12732	12732.675
2096.12447	12716.675
2099.11969	12730.175
2102.11299	12733.875
2105.10435	12736.775
2108.09379	12739.975
2111.08131	12775.175
2114.0669	12766.275
2117.05057	12778.475
2120.03233	12791.975
2123.01216	12785.275
2125.99008	12789.275
2128.96609	12807.175
2131.94018	12825.075
2134.91236	12838.775
2137.88263	12850.275
2140.851	12811.875
2143.81746	12842.175
2146.78201	12854.775
2149.74466	12859.675
2152.7054	12880.375
2155.66425	12880.875
2158.6212	12873.775
2161.57625	12869.075
2164.52941	12878.975
2167.48067	12883.775
2170.43004	12865.375
2173.37752	12857.675
2176.32311	12853.275
2179.26681	12844.175
2182.20863	12845.575
2185.14856	12842.175
2188.08661	12833.075
2191.02278	12848.975
2193.95707	12851.875
2196.88948	12847.475
2199.82001	12819.775
2202.74867	12821.975
2205.67545	12815.975
2208.60037	12797.075
2211.52341	12790.475
2214.44458	12760.575
2217.36388	12740.775
2220.28132	12732.775
2223.1969	12700.875
2226.11061	12704.875
2229.02246	12679.275
2231.93245	12646.775
2234.84058	12631.175
2237.74686	12615.175
2240.65128	12601.775
2243.55385	12597.675
2246.45456	12555.875
2249.35343	12545.875
2252.25044	12553.475
2255.14561	12492.675
2258.03893	12501.975
2260.93041	12475.875
2263.82004	12443.475
2266.70783	12417.975
2269.59378	12406.075
2272.4779	12341.875
2275.36017	12348.775
2278.24061	12297.375
2281.11922	12285.475
2283.996	12279.775
2286.87094	12282.375
2289.74405	12245.775
2292.61534	12252.275
2295.4848	12222.875
2298.35243	12263.075
2301.21824	12224.275
2304.08223	12215.475
2306.94439	12206.275
2309.80474	12216.275
2312.66327	12222.675
2315.51999	12197.575
2318.37489	12217.275
2321.22797	12191.075
2324.07925	12186.275
2326.92871	12183.675
2329.77637	12187.475
2332.62222	12149.275
2335.46626	12147.975
2338.3085	12137.075
2341.14893	12143.375
2343.98756	12131.075
2346.8244	12103.875
2349.65943	12103.775
2352.49267	12107.275
2355.32411	12107.975
2358.15376	12072.575
2360.98161	12069.175
2363.80768	12060.975
2366.63195	12081.675
2369.45444	12035.275
2372.27514	12010.675
2375.09405	12023.875
2377.91118	12013.975
2380.72652	11983.975
2383.54009	11957.675
2386.35187	11970.675
2389.16188	11924.275
2391.97011	11903.875
2394.77657	11868.375
2397.58125	11876.375
2400.38416	11861.775
2403.18529	11813.475
2405.98466	11809.075
2408.78226	11819.075
2411.57809	11800.775
2414.37216	11790.275
2417.16446	11773.275
2419.955	11764.975
2422.74378	11768.675
2425.5308	11727.175
2428.31606	11704.875
2431.09956	11714.175
2433.88131	11686.275
2436.6613	11676.875
2439.43954	11689.675
2442.21603	11687.975
2444.99077	11653.375
2447.76377	11670.975
2450.53501	11664.975
2453.30451	11656.275
2456.07226	11662.675
2458.83827	11651.775
2461.60254	11638.975
2464.36507	11640.575
2467.12586	11655.875
2469.88492	11631.575
2472.64224	11658.075
2475.39782	11635.675
2478.15167	11633.775
2480.90379	11639.975
2483.65417	11668.875
2486.40283	11625.775
2489.14976	11659.175
2491.89497	11651.575
2494.63845	11666.775
2497.3802	11668.375
2500.12024	11643.775
2502.85855	11630.975
2505.59514	11639.475
2508.33002	11618.375
2511.06318	11609.075
2513.79462	11574.775
2516.52435	11572.775
2519.25237	11592.775
2521.97867	11584.875
2524.70327	11563.875
2527.42616	11564.375
2530.14734	11547.975
2532.86681	11533.075
2535.58458	11517.175
2538.30065	11511.075
2541.01501	11502.475
2543.72768	11491.575
2546.43864	11506.675
2549.14791	11468.375
2551.85548	11463.575
2554.56136	11429.975
2557.26554	11432.475
2559.96803	11431.175
2562.66883	11420.375
2565.36794	11421.275
2568.06536	11435.775
2570.7611	11427.675
2573.45514	11387.975
2576.14751	11401.975
2578.83819	11367.975
2581.52719	11368.475
2584.21451	11352.575
2586.90015	11360.875
2589.58411	11338.775
2592.2664	11293.075
2594.94701	11274.075
2597.62594	11277.875
2600.30321	11271.475
2602.9788	11283.675
2605.65273	11258.775
2608.32498	11270.475
2610.99557	11247.075
2613.66449	11248.575
2616.33175	11219.475
2618.99734	11241.175
2621.66128	11229.375
2624.32355	11206.275
2626.98416	11194.975
2629.64311	11207.875
2632.30041	11215.575
2634.95605	11198.075
2637.61004	11171.575
2640.26238	11170.475
2642.91306	11177.275
2645.56209	11151.675
2648.20948	11190.775
2650.85521	11141.775
2653.4993	11159.875
2656.14175	11170.975
2658.78255	11152.575
2661.42171	11148.875
2664.05923	11190.575
2666.6951	11159.675
2669.32934	11172.175
2671.96194	11166.575
2674.59291	11168.575
2677.22224	11178.075
2679.84993	11175.075
2682.476	11179.875
2685.10043	11177.975
2687.72324	11171.575
2690.34441	11179.275
2692.96396	11154.475
2695.58188	11170.475
2698.19818	11147.475
2700.81285	11176.875
2703.4259	11166.575
2706.03733	11252.375
2708.64714	11239.775
2711.25533	11223.375
2713.86191	11215.275
2716.46687	11226.475
2719.07021	11229.675
2721.67194	11228.775
2724.27206	11210.275
2726.87057	11212.275
2729.46747	11213.275
2732.06276	11214.575
2734.65644	11218.575
2737.24852	11229.975
2739.83899	11200.675
2742.42786	11205.075
2745.01513	11178.875
2747.60079	11203.575
2750.18486	11192.575
2752.76733	11197.975
2755.3482	11188.675
2757.92747	11182.275
2760.50515	11181.875
2763.08123	11160.875
2765.65573	11168.375
2768.22863	11164.475
2770.79994	11120.875
2773.36967	11144.375
2775.9378	11124.875
2778.50435	11106.075
2781.06932	11104.675
2783.6327	11117.075
2786.1945	11090.675
2788.75471	11070.475
2791.31335	11063.175
2793.87041	11053.775
2796.42589	11030.175
2798.97979	11037.875
2801.53212	11007.075
2804.08288	11026.975
2806.63206	10990.975
2809.17967	10957.775
2811.72571	10936.575
2814.27018	10945.975
2816.81308	10922.475
2819.35442	10908.875
2821.89419	10891.875
2824.43239	10864.475
2826.96904	10875.675
2829.50412	10872.075
2832.03763	10840.275
2834.56959	10871.375
2837.1	10842.775
2839.62884	10837.075
2842.15613	10835.375
2844.68186	10845.975
2847.20604	10846.175
2849.72867	10862.975
2852.24974	10839.775
2854.76927	10842.475
2857.28724	10825.475
2859.80367	10801.975
2862.31855	10809.875
2864.83189	10787.875
2867.34368	10787.975
2869.85393	10786.375
2872.36264	10762.075
2874.8698	10776.175
2877.37543	10791.475
2879.87952	10811.375
2882.38207	10767.375
2884.88308	10777.775
2887.38256	10813.075
2889.88051	10795.575
2892.37692	10808.075
2894.8718	10787.175
2897.36515	10795.875
2899.85698	10786.675
2902.34727	10801.775
2904.83604	10818.775
2907.32328	10839.375
2909.809	10823.575
2912.29319	10836.575
2914.77587	10823.775
2917.25702	10825.975
2919.73665	10813.275
2922.21476	10825.875
2924.69136	10825.475
2927.16644	10843.375
2929.64	10806.575
2932.11205	10805.275
2934.58258	10779.075
2937.05161	10817.675
2939.51912	10797.175
2941.98513	10783.475
2944.44962	10750.975
2946.91261	10747.375
2949.37409	10768.175
2951.83407	10748.375
2954.29254	10733.375
2956.74951	10724.375
2959.20498	10717.875
2961.65895	10722.675
2964.11142	10739.975
2966.56239	10695.375
2969.01186	10709.575
2971.45984	10691.775
2973.90632	10627.575
2976.35131	10578.775
2978.7948	10583.275
2981.23681	10560.475
2983.67732	10574.275
2986.11635	10549.175
2988.55388	10540.775
2990.98993	10506.575
2993.4245	10512.575
2995.85758	10492.375
2998.28917	10469.975
3000.71928	10442.775
3003.14791	10424.775
3005.57506	10405.675
3008.00073	10415.575
3010.42493	10416.475
3012.84764	10361.775
3015.26888	10365.275
3017.68865	10335.975
3020.10694	10312.075
3022.52376	10306.975
3024.9391	10292.275
3027.35298	10320.875
3029.76539	10283.475
3032.17632	10289.575
3034.5858	10262.775
3036.9938	10283.175
3039.40034	10247.675
3041.80542	10259.275
3044.20903	10239.475
3046.61118	10226.175
3049.01187	10211.175
3051.4111	10231.175
3053.80888	10201.075
3056.20519	10198.675
3058.60005	10165.475
3060.99345	10157.475
3063.3854	10116.275
3065.7759	10088.075
3068.16494	10078.175
3070.55254	10062.175
3072.93868	10066.075
3075.32338	10027.575
3077.70662	9988.275
3080.08842	9987.575
3082.46878	9962.475
3084.84769	9993.175
3087.22515	9958.175
3089.60118	9967.175
3091.97576	9980.675
3094.3489	9961.775
3096.72061	9938.375
3099.09087	9949.575
3101.4597	9953.475
3103.82709	9922.875
3106.19305	9915.675
3108.55757	9937.375
3110.92066	9886.775
3113.28232	9907.575
3115.64255	9870.475
3118.00134	9843.275
3120.35871	9839.475
3122.71466	9846.375
3125.06917	9808.375
3127.42226	9791.575
3129.77393	9827.375
3132.12417	9825.175
3134.47299	9806.675
3136.82039	9821.775
3139.16636	9817.775
3141.51092	9848.675
3143.85406	9827.675
3146.19579	9843.875
3148.53609	9829.875
3150.87499	9832.775
3153.21246	9828.275
3155.54853	9858.975
3157.88318	9840.075
3160.21642	9863.775
3162.54826	9828.375
3164.87868	9835.575
3167.2077	9831.275
3169.5353	9825.475
3171.86151	9836.575
3174.18631	9843.875
3176.5097	9838.875
3178.83169	9798.075
3181.15228	9828.075
3183.47147	9807.475
3185.78926	9829.675
3188.10565	9809.475
3190.42065	9778.575
3192.73424	9811.075
3195.04645	9775.475
3197.35725	9793.975
3199.66667	9804.375
3201.97469	9800.875
3204.28132	9804.675
3206.58656	9805.175
3208.8904	9817.575
3211.19287	9821.775
3213.49394	9813.775
3215.79363	9795.375
3218.09193	9808.775
3220.38884	9809.675
3222.68438	9821.075
3224.97853	9804.175
3227.2713	9811.275
3229.56269	9784.975
3231.8527	9786.175
3234.14133	9753.375
3236.42858	9728.975
3238.71446	9756.475
3240.99896	9713.575
3243.28209	9716.975
3245.56384	9693.575
3247.84423	9695.575
3250.12324	9724.275
3252.40088	9695.975
3254.67715	9701.675
3256.95205	9679.975
3259.22558	9680.375
3261.49775	9680.175
3263.76855	9658.475
3266.03799	9649.175
3268.30606	9631.275
3270.57277	9612.875
3272.83812	9597.675
3275.10211	9561.775
3277.36474	9581.775
3279.62601	9583.875
3281.88593	9550.875
3284.14448	9587.275
3286.40168	9563.775
3288.65753	9585.175
3290.91202	9539.175
3293.16516	9504.475
3295.41695	9497.775
3297.66738	9440.575
3299.91647	9397.675
3302.16421	9325.975
3304.4106	9293.475
3306.65564	9261.175
3308.89933	9216.175
3311.14169	9169.875
3313.38269	9103.375
3315.62236	9046.975
3317.86068	8986.075
3320.09766	8870.375
3322.3333	8808.475
3324.5676	8836.475
3326.80056	8665.675
3329.03219	8637.875
3331.26248	3.875
3333.49143	-0.325
3335.71905	0.075
