Data from AgNP_FTO_APTES_UA_10uM_CRN_20uM_R6G_10uM_NaF_0.1M_Addition_RamanShift__24__16-30-50-764.txt Node

Date: Thu Feb 10 16:30:50 GMT 2022
User: TCL
Spectrometer: QEP01345
Trigger mode: 4
Integration Time (sec): 7.000000E0
Scans to average: 10
Electric dark correction enabled: true
Nonlinearity correction enabled: false
Boxcar width: 0
XAxis mode: Raman Shifts
Number of Pixels in Spectrum: 1044
>>>>>Begin Spectral Data<<<<<
46.04893	0.075
50.45542	-1.425
54.85868	-2.025
59.25871	-1.325
63.6555	70.175
68.04907	74.775
72.43941	82.775
76.82654	77.075
81.21044	84.975
85.59113	83.175
89.96862	87.875
94.34289	91.775
98.71396	96.075
103.08183	99.875
107.4465	101.475
111.80798	103.875
116.16626	110.475
120.52136	109.375
124.87327	113.375
129.222	122.075
133.56755	131.775
137.90993	137.475
142.24913	156.375
146.58517	167.975
150.91804	197.775
155.24774	238.175
159.57429	292.275
163.89768	374.275
168.21792	493.375
172.53501	680.075
176.84895	949.075
181.15975	1323.575
185.46741	1865.075
189.77193	2574.875
194.07331	3417.275
198.37157	4402.575
202.6667	5440.375
206.9587	6472.575
211.24758	7474.675
215.53334	8461.175
219.81599	9550.075
224.09553	10711.175
228.37195	12015.475
232.64527	13497.775
236.91549	15011.975
241.18261	16538.975
245.44663	17920.775
249.70755	19184.075
253.96539	20349.775
258.22014	21308.175
262.4718	22113.575
266.72039	22767.575
270.96589	23122.375
275.20832	23314.375
279.44768	23305.875
283.68397	23236.975
287.91719	23144.575
292.14735	23157.475
296.37445	23239.775
300.59849	23325.975
304.81948	23367.075
309.03742	23199.775
313.25231	22835.275
317.46415	22163.875
321.67296	21396.275
325.87872	20817.175
330.08145	20572.575
334.28114	20564.475
338.47781	20752.475
342.67145	21043.275
346.86207	21478.775
351.04966	21990.975
355.23424	22563.275
359.4158	22951.275
363.59435	23237.275
367.76989	23435.775
371.94243	23551.375
376.11196	23640.975
380.27849	23711.875
384.44203	23772.875
388.60257	23874.175
392.76012	24063.575
396.91468	24323.375
401.06626	24748.775
405.21485	25019.575
409.36047	24874.675
413.50311	24422.375
417.64277	24029.875
421.77947	23907.275
425.9132	24026.775
430.04396	24181.475
434.17176	24375.875
438.2966	24621.175
442.41849	25075.675
446.53742	25667.175
450.6534	26391.275
454.76644	26954.775
458.87653	27238.575
462.98368	27169.475
467.08789	26938.375
471.18916	26616.275
475.2875	26359.275
479.38291	26150.575
483.4754	25935.375
487.56496	25533.675
491.6516	25061.275
495.73531	24715.575
499.81612	24492.275
503.89401	24557.575
507.96899	24615.775
512.04106	24567.775
516.11023	24488.375
520.1765	24313.675
524.23987	24192.575
528.30034	23997.175
532.35792	23741.475
536.41261	23536.675
540.46441	23320.575
544.51333	23378.075
548.55936	23692.275
552.60252	24223.775
556.64279	24797.775
560.6802	25121.275
564.71473	25273.975
568.7464	25698.275
572.7752	26163.775
576.80114	26306.375
580.82422	26342.575
584.84444	26419.975
588.86181	26522.375
592.87633	26766.675
596.888	26995.275
600.89682	27305.775
604.9028	28467.675
608.90594	31298.875
612.90624	34326.275
616.90371	32246.575
620.89834	26828.075
624.89015	24590.275
628.87913	24326.075
632.86528	24400.375
636.84862	24284.875
640.82913	23929.475
644.80683	23247.775
648.78172	22808.375
652.75379	22740.175
656.72306	23038.075
660.68952	23530.075
664.65319	23443.175
668.61405	23043.075
672.57211	22886.675
676.52738	22879.175
680.47986	22880.675
684.42955	22797.175
688.37646	22781.975
692.32058	22907.875
696.26192	23077.775
700.20048	23347.975
704.13626	23511.075
708.06928	23477.575
711.99952	23282.775
715.927	23209.375
719.85171	23215.675
723.77365	23141.375
727.69284	22929.975
731.60928	22732.275
735.52295	22660.875
739.43388	22669.775
743.34206	22812.175
747.24749	22942.175
751.15017	23167.375
755.05012	23552.075
758.94733	24301.075
762.8418	25627.075
766.73354	27670.775
770.62254	29578.675
774.50882	29987.675
778.39237	28601.075
782.27321	26288.775
786.15132	24460.075
790.02671	23387.475
793.89938	22888.575
797.76935	22685.175
801.6366	22629.375
805.50115	22535.175
809.36299	22426.375
813.22213	22327.675
817.07857	22308.775
820.93231	22268.975
824.78336	22213.475
828.63172	22176.475
832.47738	22224.575
836.32036	22216.475
840.16066	22290.175
843.99827	22332.675
847.8332	22272.475
851.66546	22172.675
855.49504	22154.375
859.32195	22115.675
863.1462	22017.275
866.96777	21912.475
870.78668	21864.475
874.60293	21865.275
878.41652	21881.475
882.22745	21939.675
886.03573	21988.775
889.84136	21956.875
893.64433	21858.375
897.44466	21772.575
901.24235	21731.475
905.0374	21682.875
908.8298	21712.375
912.61957	21751.675
916.40671	21957.275
920.19121	22238.675
923.97308	22417.175
927.75233	22472.775
931.52895	22366.375
935.30295	22119.875
939.07433	21722.075
942.84309	21440.575
946.60924	21302.675
950.37278	21225.275
954.13371	21121.175
957.89203	21023.375
961.64774	20975.975
965.40086	20908.975
969.15137	20877.075
972.89929	20771.575
976.64461	20702.075
980.38733	20721.875
984.12747	20774.775
987.86502	20964.675
991.59999	21206.775
995.33237	21630.775
999.06217	22298.675
1002.78939	23003.375
1006.51404	23442.675
1010.23611	23695.575
1013.95561	23864.375
1017.67255	23865.375
1021.38692	23675.875
1025.09872	23493.875
1028.80796	23688.275
1032.51465	24277.675
1036.21877	24882.475
1039.92035	24970.675
1043.61937	24614.875
1047.31584	24030.475
1051.00976	23412.675
1054.70114	23133.475
1058.38998	23115.975
1062.07627	23286.275
1065.76003	23387.875
1069.44126	23465.875
1073.11995	23636.775
1076.79611	23810.575
1080.46974	23911.575
1084.14085	24138.175
1087.80943	24389.475
1091.47549	24555.075
1095.13903	24435.775
1098.80005	24107.875
1102.45857	23657.075
1106.11456	23431.875
1109.76805	23382.875
1113.41903	23568.975
1117.06751	23800.375
1120.71348	24113.075
1124.35696	24406.275
1127.99793	24676.875
1131.63641	24763.175
1135.2724	24569.075
1138.90589	24284.075
1142.5369	24051.175
1146.16542	24060.475
1149.79145	24134.175
1153.415	24360.675
1157.03607	24737.375
1160.65467	25325.875
1164.27079	26267.475
1167.88443	27487.675
1171.49561	29132.575
1175.10432	31357.775
1178.71056	34167.975
1182.31434	36705.975
1185.91565	38130.575
1189.51451	38306.775
1193.11091	37261.575
1196.70485	35647.675
1200.29634	34002.575
1203.88538	32664.775
1207.47197	31584.675
1211.05612	30679.175
1214.63782	29983.975
1218.21708	29609.975
1221.79391	29477.675
1225.36829	29421.775
1228.94024	29184.475
1232.50976	28902.575
1236.07685	28598.475
1239.6415	28525.975
1243.20374	28516.675
1246.76355	28711.375
1250.32093	29103.875
1253.8759	29742.475
1257.42845	30563.675
1260.97859	31357.075
1264.52631	32033.675
1268.07163	32821.675
1271.61453	33630.375
1275.15503	34542.975
1278.69312	35435.075
1282.22882	36161.275
1285.76211	36880.375
1289.29301	37685.375
1292.82151	38761.575
1296.34761	40209.075
1299.87133	42106.075
1303.39266	44535.675
1306.9116	47454.475
1310.42815	50324.075
1313.94233	52209.875
1317.45412	52538.475
1320.96354	51784.975
1324.47058	50704.575
1327.97525	49639.775
1331.47754	48980.575
1334.97747	48895.275
1338.47502	49227.975
1341.97022	49661.275
1345.46305	49409.875
1348.95352	48711.375
1352.44163	47914.675
1355.92738	48075.275
1359.41078	49848.375
1362.89183	51574.975
1366.37053	50181.475
1369.84688	45844.675
1373.32088	41262.175
1376.79254	38249.575
1380.26186	37016.575
1383.72883	36755.975
1387.19347	36652.775
1390.65578	36501.675
1394.11575	36587.975
1397.57339	37091.975
1401.0287	37867.575
1404.48168	38632.675
1407.93234	39176.875
1411.38068	39085.575
1414.82669	38272.775
1418.27039	36785.875
1421.71177	35128.675
1425.15083	33760.075
1428.58758	32910.475
1432.02203	32798.275
1435.45416	33210.875
1438.88399	33776.775
1442.31151	34434.475
1445.73673	34966.575
1449.15965	35584.275
1452.58027	36039.075
1455.9986	36303.075
1459.41463	36643.575
1462.82837	37197.975
1466.23982	37900.475
1469.64898	38480.775
1473.05586	38794.275
1476.46045	38722.675
1479.86276	38555.875
1483.26279	38348.275
1486.66054	38272.975
1490.05602	38357.375
1493.44922	38599.175
1496.84016	38926.875
1500.22882	39515.075
1503.61521	40551.775
1506.99934	42108.375
1510.38121	43710.175
1513.76081	44505.375
1517.13816	43803.075
1520.51324	42018.275
1523.88607	40166.975
1527.25665	38894.575
1530.62498	38179.175
1533.99105	37894.875
1537.35488	37673.175
1540.71647	37348.175
1544.07581	36973.575
1547.4329	36389.075
1550.78776	35876.675
1554.14038	35511.575
1557.49077	35439.475
1560.83892	35480.475
1564.18484	35498.375
1567.52853	35458.375
1570.86999	35419.675
1574.20922	35661.675
1577.54624	35887.675
1580.88103	35839.675
1584.2136	35896.675
1587.54395	36641.475
1590.87208	38220.075
1594.19801	40358.875
1597.52172	42624.575
1600.84321	43301.675
1604.16251	41724.175
1607.47959	38865.075
1610.79447	35727.975
1614.10715	32871.275
1617.41763	30478.975
1620.7259	28812.775
1624.03199	27955.775
1627.33587	27836.575
1630.63757	28577.775
1633.93707	30144.875
1637.23439	32576.975
1640.52951	35561.275
1643.82246	38828.575
1647.11321	41190.975
1650.40179	41664.875
1653.68819	39385.675
1656.97241	34996.475
1660.25446	30509.675
1663.53433	27115.175
1666.81203	24861.475
1670.08756	23382.175
1673.36092	22455.575
1676.63211	21876.775
1679.90115	21412.175
1683.16801	21098.575
1686.43272	20877.475
1689.69527	20671.175
1692.95567	20558.475
1696.2139	20455.175
1699.46999	20410.675
1702.72392	20346.575
1705.97571	20245.875
1709.22535	20174.875
1712.47284	20125.775
1715.71819	20130.875
1718.96139	20059.675
1722.20246	20003.675
1725.44139	19918.875
1728.67818	19818.875
1731.91284	19713.275
1735.14537	19629.675
1738.37576	19532.075
1741.60403	19460.675
1744.83017	19389.275
1748.05418	19383.075
1751.27607	19357.175
1754.49584	19296.475
1757.71349	19312.875
1760.92903	19262.275
1764.14244	19243.575
1767.35375	19215.875
1770.56294	19200.975
1773.77002	19163.075
1776.97499	19138.975
1780.17785	19089.775
1783.37861	19103.575
1786.57727	19032.775
1789.77382	19025.975
1792.96828	18957.975
1796.16064	18970.475
1799.3509	18960.075
1802.53907	18924.375
1805.72514	18873.575
1808.90913	18800.575
1812.09102	18801.175
1815.27083	18749.175
1818.44856	18726.275
1821.6242	18690.475
1824.79776	18664.175
1827.96924	18659.275
1831.13864	18621.275
1834.30597	18660.375
1837.47122	18646.975
1840.6344	18655.775
1843.7955	18640.575
1846.95454	18626.575
1850.11151	18641.875
1853.26642	18648.575
1856.41926	18616.175
1859.57004	18632.875
1862.71876	18637.175
1865.86542	18607.375
1869.01003	18593.675
1872.15258	18617.575
1875.29308	18599.775
1878.43152	18632.575
1881.56792	18610.175
1884.70227	18596.675
1887.83457	18615.975
1890.96482	18594.475
1894.09304	18623.975
1897.21921	18586.075
1900.34335	18584.575
1903.46544	18555.375
1906.58551	18576.275
1909.70353	18567.575
1912.81953	18575.175
1915.93349	18535.075
1919.04543	18517.675
1922.15534	18473.775
1925.26322	18408.675
1928.36908	18363.475
1931.47292	18347.975
1934.57473	18275.875
1937.67453	18229.475
1940.77232	18166.475
1943.86808	18082.975
1946.96184	18007.575
1950.05358	17925.375
1953.14331	17879.375
1956.23103	17806.175
1959.31675	17756.675
1962.40046	17723.775
1965.48217	17644.175
1968.56188	17636.875
1971.63959	17544.975
1974.7153	17505.375
1977.78901	17422.775
1980.86073	17391.475
1983.93046	17356.775
1986.99819	17316.175
1990.06394	17239.475
1993.1277	17182.175
1996.18947	17139.875
1999.24925	17072.175
2002.30706	17037.475
2005.36288	17022.575
2008.41672	16934.975
2011.46859	16871.875
2014.51848	16899.475
2017.56639	16836.975
2020.61233	16795.975
2023.6563	16755.875
2026.6983	16700.875
2029.73833	16673.775
2032.7764	16648.175
2035.8125	16653.275
2038.84664	16587.475
2041.87881	16537.375
2044.90903	16497.375
2047.93729	16486.575
2050.96359	16485.075
2053.98794	16470.175
2057.01034	16476.275
2060.03078	16428.975
2063.04927	16402.975
2066.06582	16400.075
2069.08042	16419.675
2072.09307	16407.075
2075.10378	16361.075
2078.11255	16376.575
2081.11938	16361.875
2084.12426	16343.275
2087.12722	16314.575
2090.12824	16308.375
2093.12732	16286.275
2096.12447	16309.175
2099.11969	16298.375
2102.11299	16296.975
2105.10435	16299.575
2108.09379	16303.375
2111.08131	16310.675
2114.0669	16313.575
2117.05057	16309.175
2120.03233	16338.875
2123.01216	16363.275
2125.99008	16355.175
2128.96609	16385.675
2131.94018	16413.275
2134.91236	16408.175
2137.88263	16408.775
2140.851	16429.975
2143.81746	16425.975
2146.78201	16399.875
2149.74466	16424.875
2152.7054	16433.875
2155.66425	16442.275
2158.6212	16444.075
2161.57625	16445.275
2164.52941	16442.175
2167.48067	16406.875
2170.43004	16402.375
2173.37752	16351.275
2176.32311	16375.575
2179.26681	16431.175
2182.20863	16412.175
2185.14856	16400.675
2188.08661	16394.075
2191.02278	16402.475
2193.95707	16436.275
2196.88948	16397.375
2199.82001	16410.475
2202.74867	16400.475
2205.67545	16388.075
2208.60037	16377.075
2211.52341	16356.175
2214.44458	16330.875
2217.36388	16303.875
2220.28132	16327.175
2223.1969	16285.775
2226.11061	16230.775
2229.02246	16201.375
2231.93245	16177.275
2234.84058	16145.975
2237.74686	16088.475
2240.65128	16099.775
2243.55385	16030.975
2246.45456	16061.975
2249.35343	16019.975
2252.25044	16019.975
2255.14561	15991.275
2258.03893	15967.075
2260.93041	15935.675
2263.82004	15898.175
2266.70783	15851.375
2269.59378	15754.375
2272.4779	15758.275
2275.36017	15724.275
2278.24061	15725.475
2281.11922	15680.175
2283.996	15620.275
2286.87094	15654.575
2289.74405	15647.475
2292.61534	15635.575
2295.4848	15653.975
2298.35243	15637.375
2301.21824	15600.675
2304.08223	15640.575
2306.94439	15606.075
2309.80474	15652.775
2312.66327	15678.675
2315.51999	15637.075
2318.37489	15655.675
2321.22797	15627.975
2324.07925	15621.375
2326.92871	15602.775
2329.77637	15567.475
2332.62222	15539.075
2335.46626	15553.575
2338.3085	15538.175
2341.14893	15564.075
2343.98756	15581.575
2346.8244	15608.575
2349.65943	15575.775
2352.49267	15577.875
2355.32411	15580.575
2358.15376	15599.175
2360.98161	15587.875
2363.80768	15566.675
2366.63195	15551.675
2369.45444	15516.275
2372.27514	15481.075
2375.09405	15448.675
2377.91118	15411.475
2380.72652	15342.475
2383.54009	15347.375
2386.35187	15311.875
2389.16188	15279.175
2391.97011	15241.075
2394.77657	15194.775
2397.58125	15188.675
2400.38416	15209.975
2403.18529	15153.475
2405.98466	15126.475
2408.78226	15073.975
2411.57809	15060.675
2414.37216	15042.675
2417.16446	15046.075
2419.955	15006.975
2422.74378	14962.575
2425.5308	14967.475
2428.31606	14970.375
2431.09956	15016.075
2433.88131	14962.375
2436.6613	14964.275
2439.43954	14986.675
2442.21603	14971.975
2444.99077	14930.175
2447.76377	14951.075
2450.53501	14929.475
2453.30451	14899.775
2456.07226	14880.275
2458.83827	14915.775
2461.60254	14884.775
2464.36507	14858.375
2467.12586	14858.675
2469.88492	14860.975
2472.64224	14847.775
2475.39782	14898.675
2478.15167	14893.875
2480.90379	14907.875
2483.65417	14964.575
2486.40283	14942.375
2489.14976	14950.475
2491.89497	14964.275
2494.63845	14986.475
2497.3802	14975.175
2500.12024	15008.775
2502.85855	14988.375
2505.59514	14959.075
2508.33002	14921.775
2511.06318	14917.775
2513.79462	14895.975
2516.52435	14886.275
2519.25237	14894.375
2521.97867	14832.975
2524.70327	14840.275
2527.42616	14812.675
2530.14734	14826.975
2532.86681	14826.375
2535.58458	14830.275
2538.30065	14793.075
2541.01501	14827.575
2543.72768	14804.375
2546.43864	14829.375
2549.14791	14781.875
2551.85548	14775.875
2554.56136	14744.775
2557.26554	14724.875
2559.96803	14719.075
2562.66883	14690.075
2565.36794	14681.075
2568.06536	14655.975
2570.7611	14657.075
2573.45514	14621.675
2576.14751	14624.175
2578.83819	14607.375
2581.52719	14605.275
2584.21451	14628.375
2586.90015	14617.375
2589.58411	14624.375
2592.2664	14610.675
2594.94701	14609.775
2597.62594	14620.675
2600.30321	14561.975
2602.9788	14591.475
2605.65273	14589.575
2608.32498	14618.075
2610.99557	14575.875
2613.66449	14616.475
2616.33175	14584.575
2618.99734	14599.275
2621.66128	14597.575
2624.32355	14610.575
2626.98416	14599.475
2629.64311	14596.175
2632.30041	14587.775
2634.95605	14530.375
2637.61004	14544.175
2640.26238	14543.275
2642.91306	14507.475
2645.56209	14500.575
2648.20948	14525.375
2650.85521	14475.275
2653.4993	14485.275
2656.14175	14481.975
2658.78255	14467.175
2661.42171	14495.675
2664.05923	14522.175
2666.6951	14549.175
2669.32934	14572.875
2671.96194	14572.075
2674.59291	14597.175
2677.22224	14583.375
2679.84993	14585.875
2682.476	14575.175
2685.10043	14576.075
2687.72324	14553.275
2690.34441	14516.675
2692.96396	14524.875
2695.58188	14522.575
2698.19818	14482.475
2700.81285	14528.675
2703.4259	14519.175
2706.03733	14530.275
2708.64714	14502.675
2711.25533	14523.675
2713.86191	14543.375
2716.46687	14549.075
2719.07021	14523.775
2721.67194	14580.675
2724.27206	14579.875
2726.87057	14576.975
2729.46747	14564.175
2732.06276	14599.075
2734.65644	14590.375
2737.24852	14574.975
2739.83899	14543.475
2742.42786	14582.375
2745.01513	14569.175
2747.60079	14536.075
2750.18486	14540.275
2752.76733	14522.175
2755.3482	14531.775
2757.92747	14514.475
2760.50515	14491.275
2763.08123	14520.175
2765.65573	14502.375
2768.22863	14497.175
2770.79994	14480.375
2773.36967	14484.475
2775.9378	14512.275
2778.50435	14515.475
2781.06932	14490.575
2783.6327	14500.375
2786.1945	14478.375
2788.75471	14468.775
2791.31335	14455.975
2793.87041	14436.175
2796.42589	14423.875
2798.97979	14422.775
2801.53212	14400.475
2804.08288	14393.275
2806.63206	14360.675
2809.17967	14328.775
2811.72571	14283.075
2814.27018	14302.975
2816.81308	14264.275
2819.35442	14244.975
2821.89419	14242.675
2824.43239	14212.275
2826.96904	14194.275
2829.50412	14202.175
2832.03763	14156.075
2834.56959	14175.175
2837.1	14158.975
2839.62884	14186.075
2842.15613	14163.975
2844.68186	14169.175
2847.20604	14135.375
2849.72867	14158.075
2852.24974	14126.775
2854.76927	14129.475
2857.28724	14099.575
2859.80367	14105.175
2862.31855	14066.875
2864.83189	14050.575
2867.34368	14036.275
2869.85393	14045.675
2872.36264	14067.075
2874.8698	14015.175
2877.37543	14016.775
2879.87952	14037.875
2882.38207	14028.675
2884.88308	14049.175
2887.38256	14073.275
2889.88051	14024.075
2892.37692	14063.375
2894.8718	14055.775
2897.36515	14078.275
2899.85698	14070.775
2902.34727	14112.675
2904.83604	14091.175
2907.32328	14138.075
2909.809	14157.375
2912.29319	14162.075
2914.77587	14154.675
2917.25702	14147.575
2919.73665	14135.375
2922.21476	14144.175
2924.69136	14085.675
2927.16644	14107.075
2929.64	14099.675
2932.11205	14022.675
2934.58258	14001.675
2937.05161	14050.475
2939.51912	13992.175
2941.98513	14013.875
2944.44962	13960.375
2946.91261	13948.875
2949.37409	13981.775
2951.83407	13960.775
2954.29254	13942.075
2956.74951	13928.075
2959.20498	13939.075
2961.65895	13893.375
2964.11142	13895.475
2966.56239	13883.775
2969.01186	13887.075
2971.45984	13855.775
2973.90632	13861.275
2976.35131	13799.775
2978.7948	13793.575
2981.23681	13738.275
2983.67732	13745.775
2986.11635	13721.475
2988.55388	13671.875
2990.98993	13637.775
2993.4245	13601.175
2995.85758	13567.775
2998.28917	13520.875
3000.71928	13493.675
3003.14791	13498.275
3005.57506	13472.575
3008.00073	13413.875
3010.42493	13357.675
3012.84764	13353.075
3015.26888	13358.075
3017.68865	13317.375
3020.10694	13325.175
3022.52376	13285.775
3024.9391	13280.175
3027.35298	13262.975
3029.76539	13269.075
3032.17632	13256.775
3034.5858	13276.275
3036.9938	13262.275
3039.40034	13254.675
3041.80542	13251.975
3044.20903	13243.175
3046.61118	13216.475
3049.01187	13197.775
3051.4111	13137.775
3053.80888	13126.275
3056.20519	13083.775
3058.60005	13078.775
3060.99345	13024.475
3063.3854	13000.275
3065.7759	12965.175
3068.16494	12936.075
3070.55254	12918.675
3072.93868	12867.475
3075.32338	12821.175
3077.70662	12771.275
3080.08842	12787.575
3082.46878	12787.075
3084.84769	12756.575
3087.22515	12740.875
3089.60118	12766.775
3091.97576	12720.875
3094.3489	12711.775
3096.72061	12721.675
3099.09087	12725.175
3101.4597	12734.175
3103.82709	12691.575
3106.19305	12679.675
3108.55757	12706.675
3110.92066	12662.075
3113.28232	12616.475
3115.64255	12579.675
3118.00134	12579.675
3120.35871	12566.275
3122.71466	12538.075
3125.06917	12493.375
3127.42226	12502.175
3129.77393	12513.775
3132.12417	12464.275
3134.47299	12451.575
3136.82039	12446.075
3139.16636	12449.375
3141.51092	12440.575
3143.85406	12453.775
3146.19579	12404.375
3148.53609	12413.175
3150.87499	12413.875
3153.21246	12424.375
3155.54853	12454.775
3157.88318	12446.475
3160.21642	12462.975
3162.54826	12460.475
3164.87868	12448.575
3167.2077	12465.275
3169.5353	12448.175
3171.86151	12496.575
3174.18631	12448.875
3176.5097	12425.575
3178.83169	12418.775
3181.15228	12403.675
3183.47147	12415.375
3185.78926	12397.375
3188.10565	12367.875
3190.42065	12361.375
3192.73424	12355.375
3195.04645	12349.075
3197.35725	12342.675
3199.66667	12321.275
3201.97469	12340.975
3204.28132	12352.875
3206.58656	12380.975
3208.8904	12366.675
3211.19287	12374.975
3213.49394	12368.075
3215.79363	12355.675
3218.09193	12382.075
3220.38884	12381.675
3222.68438	12396.875
3224.97853	12341.975
3227.2713	12359.575
3229.56269	12317.075
3231.8527	12321.575
3234.14133	12304.675
3236.42858	12284.675
3238.71446	12260.375
3240.99896	12246.575
3243.28209	12228.975
3245.56384	12223.975
3247.84423	12232.775
3250.12324	12207.775
3252.40088	12191.775
3254.67715	12179.075
3256.95205	12176.675
3259.22558	12175.975
3261.49775	12172.975
3263.76855	12156.775
3266.03799	12124.475
3268.30606	12073.075
3270.57277	12089.275
3272.83812	12042.575
3275.10211	12039.675
3277.36474	12004.875
3279.62601	12027.575
3281.88593	11956.675
3284.14448	11990.075
3286.40168	11981.675
3288.65753	11999.075
3290.91202	11985.975
3293.16516	11945.075
3295.41695	11930.875
3297.66738	11856.375
3299.91647	11828.575
3302.16421	11760.875
3304.4106	11710.875
3306.65564	11595.775
3308.89933	11502.775
3311.14169	11430.575
3313.38269	11350.275
3315.62236	11269.575
3317.86068	11183.175
3320.09766	11109.475
3322.3333	11037.375
3324.5676	10968.275
3326.80056	10811.875
3329.03219	10759.075
3331.26248	5.375
3333.49143	0.175
3335.71905	-0.825
