Data from AgNP_FTO_APTES_UA_10uM_CRN_1000uM_R6G_10uM_NaF_0.1M_Addition_RamanShift__7__19-29-20-984.txt Node

Date: Thu Feb 10 19:29:20 GMT 2022
User: TCL
Spectrometer: QEP01345
Trigger mode: 4
Integration Time (sec): 7.000000E0
Scans to average: 10
Electric dark correction enabled: true
Nonlinearity correction enabled: false
Boxcar width: 0
XAxis mode: Raman Shifts
Number of Pixels in Spectrum: 1044
>>>>>Begin Spectral Data<<<<<
46.04893	-0.675
50.45542	-0.775
54.85868	-1.175
59.25871	-0.475
63.6555	54.625
68.04907	58.025
72.43941	62.425
76.82654	61.925
81.21044	67.225
85.59113	64.125
89.96862	70.625
94.34289	73.525
98.71396	74.225
103.08183	78.425
107.4465	79.925
111.80798	78.925
116.16626	82.925
120.52136	86.125
124.87327	90.925
129.222	93.525
133.56755	98.525
137.90993	105.825
142.24913	112.525
146.58517	126.325
150.91804	144.625
155.24774	177.825
159.57429	218.625
163.89768	272.925
168.21792	364.025
172.53501	491.725
176.84895	688.425
181.15975	966.425
185.46741	1372.125
189.77193	1906.925
194.07331	2538.125
198.37157	3285.325
202.6667	4058.025
206.9587	4837.425
211.24758	5583.525
215.53334	6334.325
219.81599	7140.825
224.09553	7976.825
228.37195	8886.625
232.64527	9944.025
236.91549	11040.925
241.18261	12156.925
245.44663	13262.525
249.70755	14257.925
253.96539	15109.925
258.22014	15857.425
262.4718	16479.725
266.72039	16920.925
270.96589	17135.725
275.20832	17217.825
279.44768	17142.425
283.68397	16956.425
287.91719	16843.125
292.14735	16716.825
296.37445	16695.225
300.59849	16668.125
304.81948	16712.625
309.03742	16645.925
313.25231	16510.125
317.46415	16263.825
321.67296	15956.225
325.87872	15706.525
330.08145	15631.125
334.28114	15603.325
338.47781	15672.125
342.67145	15817.725
346.86207	16033.225
351.04966	16257.525
355.23424	16515.625
359.4158	16730.525
363.59435	16889.125
367.76989	17063.225
371.94243	17179.725
376.11196	17254.325
380.27849	17338.925
384.44203	17457.625
388.60257	17576.725
392.76012	17717.625
396.91468	17923.125
401.06626	18134.625
405.21485	18272.425
409.36047	18234.925
413.50311	18048.225
417.64277	17980.325
421.77947	17989.125
425.9132	18084.025
430.04396	18231.225
434.17176	18332.025
438.2966	18425.525
442.41849	18661.825
446.53742	19089.025
450.6534	19430.225
454.76644	19739.825
458.87653	19839.325
462.98368	19832.725
467.08789	19783.925
471.18916	19639.825
475.2875	19541.725
479.38291	19550.225
483.4754	19522.025
487.56496	19384.325
491.6516	19098.525
495.73531	18838.725
499.81612	18603.625
503.89401	18601.525
507.96899	18667.325
512.04106	18645.625
516.11023	18605.725
520.1765	18446.125
524.23987	18343.925
528.30034	18225.225
532.35792	18155.825
536.41261	18005.425
540.46441	17904.125
544.51333	17944.125
548.55936	18106.825
552.60252	18371.725
556.64279	18787.225
560.6802	19039.125
564.71473	19232.525
568.7464	19481.925
572.7752	19926.425
576.80114	20358.225
580.82422	20625.425
584.84444	20916.525
588.86181	21397.425
592.87633	21838.425
596.888	21701.825
600.89682	21096.325
604.9028	20813.325
608.90594	21574.225
612.90624	22565.425
616.90371	21631.825
620.89834	19328.025
624.89015	18253.625
628.87913	18147.425
632.86528	18230.025
636.84862	18370.925
640.82913	18212.425
644.80683	17994.125
648.78172	17799.225
652.75379	17728.225
656.72306	17828.025
660.68952	18016.625
664.65319	17940.225
668.61405	17724.725
672.57211	17729.925
676.52738	17797.125
680.47986	17844.225
684.42955	17823.225
688.37646	17735.225
692.32058	17784.425
696.26192	17926.325
700.20048	18057.925
704.13626	18127.825
708.06928	18191.625
711.99952	18228.825
715.927	18154.025
719.85171	18143.625
723.77365	18129.325
727.69284	17935.625
731.60928	17782.725
735.52295	17746.425
739.43388	17708.025
743.34206	17740.825
747.24749	17810.825
751.15017	17918.725
755.05012	18112.925
758.94733	18441.325
762.8418	19023.425
766.73354	19879.525
770.62254	20705.525
774.50882	20876.825
778.39237	20294.825
782.27321	19305.825
786.15132	18500.625
790.02671	18001.825
793.89938	17757.125
797.76935	17639.225
801.6366	17600.625
805.50115	17546.325
809.36299	17506.425
813.22213	17453.725
817.07857	17403.725
820.93231	17397.325
824.78336	17313.525
828.63172	17264.025
832.47738	17229.325
836.32036	17159.325
840.16066	17174.825
843.99827	17163.425
847.8332	17174.225
851.66546	17179.325
855.49504	17183.525
859.32195	17208.225
863.1462	17156.025
866.96777	17139.825
870.78668	17145.425
874.60293	17169.925
878.41652	17140.025
882.22745	17171.125
886.03573	17234.525
889.84136	17232.825
893.64433	17223.625
897.44466	17174.825
901.24235	17140.125
905.0374	17090.325
908.8298	17048.125
912.61957	17051.825
916.40671	17116.425
920.19121	17266.525
923.97308	17390.625
927.75233	17329.225
931.52895	17180.925
935.30295	17015.925
939.07433	16785.225
942.84309	16653.325
946.60924	16549.425
950.37278	16477.125
954.13371	16479.225
957.89203	16477.625
961.64774	16520.425
965.40086	16436.825
969.15137	16377.025
972.89929	16331.625
976.64461	16249.725
980.38733	16189.025
984.12747	16185.125
987.86502	16214.225
991.59999	16269.925
995.33237	16330.125
999.06217	16463.525
1002.78939	16627.825
1006.51404	16798.625
1010.23611	16985.025
1013.95561	17174.725
1017.67255	17222.425
1021.38692	17182.525
1025.09872	16983.425
1028.80796	16819.425
1032.51465	16715.925
1036.21877	16706.025
1039.92035	16758.425
1043.61937	16790.625
1047.31584	16813.525
1051.00976	16872.225
1054.70114	16938.225
1058.38998	17026.425
1062.07627	17123.625
1065.76003	17294.525
1069.44126	17345.625
1073.11995	17522.325
1076.79611	17630.925
1080.46974	17701.425
1084.14085	17747.425
1087.80943	17867.325
1091.47549	17968.525
1095.13903	18038.925
1098.80005	17899.625
1102.45857	17679.125
1106.11456	17451.025
1109.76805	17326.725
1113.41903	17321.125
1117.06751	17403.425
1120.71348	17509.425
1124.35696	17666.325
1127.99793	17887.625
1131.63641	18004.925
1135.2724	17956.025
1138.90589	17841.825
1142.5369	17823.025
1146.16542	17923.425
1149.79145	18088.525
1153.415	18185.025
1157.03607	18364.325
1160.65467	18746.125
1164.27079	19371.325
1167.88443	20111.725
1171.49561	20890.125
1175.10432	21862.225
1178.71056	23098.525
1182.31434	24212.925
1185.91565	24805.725
1189.51451	24813.725
1193.11091	24491.825
1196.70485	23919.025
1200.29634	23242.925
1203.88538	22751.825
1207.47197	22439.125
1211.05612	22166.625
1214.63782	21770.025
1218.21708	21302.125
1221.79391	20793.025
1225.36829	20470.525
1228.94024	20240.325
1232.50976	20055.425
1236.07685	19861.625
1239.6415	19765.925
1243.20374	19802.625
1246.76355	19864.025
1250.32093	20005.125
1253.8759	20257.025
1257.42845	20598.025
1260.97859	21021.825
1264.52631	21464.525
1268.07163	21900.725
1271.61453	22264.425
1275.15503	22623.225
1278.69312	23100.125
1282.22882	23614.325
1285.76211	24247.825
1289.29301	25081.625
1292.82151	26101.525
1296.34761	27358.225
1299.87133	28654.625
1303.39266	29885.225
1306.9116	30947.925
1310.42815	31717.625
1313.94233	32226.525
1317.45412	32124.425
1320.96354	31764.425
1324.47058	31368.725
1327.97525	31090.425
1331.47754	30852.325
1334.97747	30679.325
1338.47502	30510.525
1341.97022	30264.725
1345.46305	30011.325
1348.95352	29798.925
1352.44163	29759.725
1355.92738	30048.725
1359.41078	30639.125
1362.89183	31176.725
1366.37053	30662.325
1369.84688	28739.925
1373.32088	26345.325
1376.79254	24730.425
1380.26186	24209.225
1383.72883	24283.725
1387.19347	24381.625
1390.65578	24351.225
1394.11575	24361.925
1397.57339	24578.825
1401.0287	24771.925
1404.48168	24851.325
1407.93234	24676.325
1411.38068	24079.825
1414.82669	23332.225
1418.27039	22430.125
1421.71177	21637.525
1425.15083	20990.925
1428.58758	20611.625
1432.02203	20742.925
1435.45416	21162.525
1438.88399	21702.625
1442.31151	22077.225
1445.73673	22362.725
1449.15965	22591.425
1452.58027	22709.025
1455.9986	22748.525
1459.41463	22865.725
1462.82837	23046.225
1466.23982	23237.325
1469.64898	23379.925
1473.05586	23501.125
1476.46045	23455.125
1479.86276	23231.725
1483.26279	22988.325
1486.66054	22859.225
1490.05602	22930.725
1493.44922	23087.425
1496.84016	23420.425
1500.22882	23869.825
1503.61521	24540.325
1506.99934	25289.725
1510.38121	25942.425
1513.76081	26012.825
1517.13816	25696.325
1520.51324	25118.425
1523.88607	24645.325
1527.25665	24543.625
1530.62498	24600.825
1533.99105	24555.525
1537.35488	24359.125
1540.71647	23941.425
1544.07581	23400.925
1547.4329	22817.125
1550.78776	22352.725
1554.14038	21943.525
1557.49077	21791.425
1560.83892	21647.625
1564.18484	21634.225
1567.52853	21658.025
1570.86999	21950.725
1574.20922	22339.125
1577.54624	22744.125
1580.88103	22916.225
1584.2136	23055.525
1587.54395	23446.625
1590.87208	24085.325
1594.19801	24898.625
1597.52172	25691.925
1600.84321	25871.725
1604.16251	25027.025
1607.47959	23596.425
1610.79447	22100.725
1614.10715	20608.525
1617.41763	19438.525
1620.7259	18595.925
1624.03199	18103.225
1627.33587	18093.225
1630.63757	18448.825
1633.93707	19328.025
1637.23439	20797.925
1640.52951	22920.325
1643.82246	25392.425
1647.11321	27358.925
1650.40179	27678.125
1653.68819	26004.925
1656.97241	23144.525
1660.25446	20311.625
1663.53433	18270.225
1666.81203	16913.725
1670.08756	16061.725
1673.36092	15538.925
1676.63211	15193.725
1679.90115	14926.925
1683.16801	14738.325
1686.43272	14592.225
1689.69527	14462.025
1692.95567	14408.425
1696.2139	14375.025
1699.46999	14320.525
1702.72392	14235.625
1705.97571	14210.125
1709.22535	14126.025
1712.47284	14095.925
1715.71819	14108.225
1718.96139	14067.025
1722.20246	14004.025
1725.44139	13926.825
1728.67818	13862.925
1731.91284	13782.925
1735.14537	13728.925
1738.37576	13682.925
1741.60403	13633.925
1744.83017	13578.425
1748.05418	13563.925
1751.27607	13553.625
1754.49584	13536.825
1757.71349	13528.225
1760.92903	13525.625
1764.14244	13494.025
1767.35375	13468.625
1770.56294	13444.525
1773.77002	13430.925
1776.97499	13390.325
1780.17785	13351.625
1783.37861	13348.825
1786.57727	13270.525
1789.77382	13266.725
1792.96828	13243.125
1796.16064	13173.925
1799.3509	13174.125
1802.53907	13147.025
1805.72514	13100.725
1808.90913	13066.125
1812.09102	13019.425
1815.27083	13020.425
1818.44856	12966.325
1821.6242	12967.725
1824.79776	12939.125
1827.96924	12910.125
1831.13864	12918.025
1834.30597	12896.425
1837.47122	12869.825
1840.6344	12832.325
1843.7955	12855.625
1846.95454	12807.025
1850.11151	12804.725
1853.26642	12780.125
1856.41926	12805.725
1859.57004	12773.825
1862.71876	12783.325
1865.86542	12763.225
1869.01003	12707.125
1872.15258	12702.625
1875.29308	12673.025
1878.43152	12665.225
1881.56792	12636.725
1884.70227	12651.825
1887.83457	12634.525
1890.96482	12579.825
1894.09304	12553.825
1897.21921	12541.925
1900.34335	12530.925
1903.46544	12528.725
1906.58551	12506.225
1909.70353	12497.825
1912.81953	12442.625
1915.93349	12415.225
1919.04543	12393.825
1922.15534	12369.725
1925.26322	12330.425
1928.36908	12329.725
1931.47292	12292.425
1934.57473	12271.225
1937.67453	12243.325
1940.77232	12205.225
1943.86808	12180.125
1946.96184	12142.625
1950.05358	12105.725
1953.14331	12055.625
1956.23103	12026.925
1959.31675	11981.925
1962.40046	11944.525
1965.48217	11906.425
1968.56188	11855.625
1971.63959	11830.025
1974.7153	11780.725
1977.78901	11742.725
1980.86073	11713.525
1983.93046	11668.425
1986.99819	11647.925
1990.06394	11617.325
1993.1277	11574.625
1996.18947	11533.525
1999.24925	11485.325
2002.30706	11432.925
2005.36288	11411.725
2008.41672	11395.425
2011.46859	11349.225
2014.51848	11296.325
2017.56639	11273.125
2020.61233	11264.725
2023.6563	11225.525
2026.6983	11190.625
2029.73833	11151.425
2032.7764	11075.825
2035.8125	11089.325
2038.84664	11071.025
2041.87881	11020.325
2044.90903	10977.425
2047.93729	10976.925
2050.96359	10982.425
2053.98794	10952.625
2057.01034	10943.025
2060.03078	10913.925
2063.04927	10904.525
2066.06582	10892.425
2069.08042	10884.625
2072.09307	10892.325
2075.10378	10894.125
2078.11255	10883.925
2081.11938	10885.425
2084.12426	10855.325
2087.12722	10837.125
2090.12824	10832.825
2093.12732	10828.225
2096.12447	10818.425
2099.11969	10816.625
2102.11299	10828.825
2105.10435	10810.925
2108.09379	10820.825
2111.08131	10767.725
2114.0669	10800.925
2117.05057	10833.225
2120.03233	10821.025
2123.01216	10805.525
2125.99008	10810.025
2128.96609	10815.325
2131.94018	10845.225
2134.91236	10851.425
2137.88263	10841.225
2140.851	10845.025
2143.81746	10867.025
2146.78201	10830.725
2149.74466	10833.025
2152.7054	10833.325
2155.66425	10826.425
2158.6212	10802.725
2161.57625	10811.725
2164.52941	10797.025
2167.48067	10754.825
2170.43004	10797.925
2173.37752	10787.125
2176.32311	10785.125
2179.26681	10800.625
2182.20863	10761.125
2185.14856	10732.925
2188.08661	10731.025
2191.02278	10763.725
2193.95707	10744.925
2196.88948	10743.825
2199.82001	10702.825
2202.74867	10690.925
2205.67545	10660.125
2208.60037	10636.825
2211.52341	10650.625
2214.44458	10621.925
2217.36388	10613.325
2220.28132	10562.925
2223.1969	10540.325
2226.11061	10492.625
2229.02246	10479.325
2231.93245	10463.325
2234.84058	10444.825
2237.74686	10438.225
2240.65128	10408.625
2243.55385	10384.525
2246.45456	10379.425
2249.35343	10343.425
2252.25044	10336.125
2255.14561	10312.925
2258.03893	10301.825
2260.93041	10292.925
2263.82004	10258.125
2266.70783	10222.425
2269.59378	10198.025
2272.4779	10148.425
2275.36017	10116.125
2278.24061	10114.725
2281.11922	10088.925
2283.996	10080.125
2286.87094	10051.625
2289.74405	10053.725
2292.61534	10030.725
2295.4848	10009.625
2298.35243	10014.725
2301.21824	9972.825
2304.08223	9982.325
2306.94439	9960.525
2309.80474	9959.725
2312.66327	9935.125
2315.51999	9959.825
2318.37489	9921.325
2321.22797	9904.425
2324.07925	9889.925
2326.92871	9868.525
2329.77637	9863.825
2332.62222	9835.325
2335.46626	9826.725
2338.3085	9787.125
2341.14893	9778.425
2343.98756	9771.525
2346.8244	9756.325
2349.65943	9731.025
2352.49267	9734.525
2355.32411	9739.025
2358.15376	9730.225
2360.98161	9722.825
2363.80768	9710.625
2366.63195	9712.425
2369.45444	9703.325
2372.27514	9674.325
2375.09405	9671.325
2377.91118	9665.125
2380.72652	9625.025
2383.54009	9594.125
2386.35187	9578.725
2389.16188	9544.425
2391.97011	9533.425
2394.77657	9495.925
2397.58125	9475.125
2400.38416	9492.625
2403.18529	9466.925
2405.98466	9428.725
2408.78226	9417.325
2411.57809	9409.925
2414.37216	9403.525
2417.16446	9396.625
2419.955	9363.425
2422.74378	9352.525
2425.5308	9335.625
2428.31606	9347.625
2431.09956	9351.525
2433.88131	9299.425
2436.6613	9289.225
2439.43954	9288.925
2442.21603	9271.025
2444.99077	9250.425
2447.76377	9260.625
2450.53501	9250.825
2453.30451	9246.525
2456.07226	9223.025
2458.83827	9221.125
2461.60254	9213.325
2464.36507	9207.925
2467.12586	9196.025
2469.88492	9161.025
2472.64224	9154.925
2475.39782	9158.825
2478.15167	9189.225
2480.90379	9154.525
2483.65417	9201.825
2486.40283	9186.325
2489.14976	9149.925
2491.89497	9155.325
2494.63845	9141.725
2497.3802	9133.625
2500.12024	9105.625
2502.85855	9105.825
2505.59514	9088.725
2508.33002	9110.425
2511.06318	9070.425
2513.79462	9072.225
2516.52435	9049.925
2519.25237	9029.325
2521.97867	9022.625
2524.70327	9019.125
2527.42616	8986.025
2530.14734	8985.925
2532.86681	8969.525
2535.58458	8981.925
2538.30065	8966.325
2541.01501	8961.025
2543.72768	8933.825
2546.43864	8950.825
2549.14791	8929.925
2551.85548	8881.425
2554.56136	8872.225
2557.26554	8847.025
2559.96803	8852.725
2562.66883	8820.425
2565.36794	8781.425
2568.06536	8773.125
2570.7611	8752.225
2573.45514	8715.625
2576.14751	8713.625
2578.83819	8718.225
2581.52719	8704.225
2584.21451	8701.725
2586.90015	8673.825
2589.58411	8632.525
2592.2664	8654.925
2594.94701	8626.625
2597.62594	8639.625
2600.30321	8618.125
2602.9788	8584.125
2605.65273	8585.025
2608.32498	8569.425
2610.99557	8575.025
2613.66449	8544.625
2616.33175	8558.625
2618.99734	8544.125
2621.66128	8530.025
2624.32355	8531.225
2626.98416	8502.025
2629.64311	8496.825
2632.30041	8480.725
2634.95605	8484.725
2637.61004	8437.525
2640.26238	8443.725
2642.91306	8438.625
2645.56209	8430.725
2648.20948	8413.825
2650.85521	8437.225
2653.4993	8399.625
2656.14175	8411.925
2658.78255	8409.825
2661.42171	8414.025
2664.05923	8429.125
2666.6951	8426.125
2669.32934	8424.325
2671.96194	8416.725
2674.59291	8384.725
2677.22224	8392.425
2679.84993	8376.125
2682.476	8377.425
2685.10043	8372.825
2687.72324	8376.625
2690.34441	8358.025
2692.96396	8371.425
2695.58188	8355.625
2698.19818	8343.625
2700.81285	8353.425
2703.4259	8373.025
2706.03733	8387.725
2708.64714	8376.325
2711.25533	8370.925
2713.86191	8367.025
2716.46687	8360.825
2719.07021	8367.525
2721.67194	8364.225
2724.27206	8377.825
2726.87057	8361.925
2729.46747	8378.825
2732.06276	8356.925
2734.65644	8350.925
2737.24852	8370.825
2739.83899	8355.225
2742.42786	8337.425
2745.01513	8322.925
2747.60079	8303.225
2750.18486	8314.625
2752.76733	8264.725
2755.3482	8279.525
2757.92747	8269.325
2760.50515	8257.325
2763.08123	8247.225
2765.65573	8234.425
2768.22863	8232.125
2770.79994	8211.325
2773.36967	8192.325
2775.9378	8176.025
2778.50435	8182.325
2781.06932	8178.425
2783.6327	8176.725
2786.1945	8185.125
2788.75471	8164.425
2791.31335	8137.125
2793.87041	8144.925
2796.42589	8121.125
2798.97979	8094.925
2801.53212	8086.725
2804.08288	8074.825
2806.63206	8041.525
2809.17967	8007.225
2811.72571	8003.925
2814.27018	7994.525
2816.81308	7956.225
2819.35442	7944.425
2821.89419	7923.825
2824.43239	7920.425
2826.96904	7893.425
2829.50412	7906.025
2832.03763	7893.225
2834.56959	7878.525
2837.1	7885.825
2839.62884	7900.525
2842.15613	7882.825
2844.68186	7917.425
2847.20604	7948.325
2849.72867	7972.425
2852.24974	7958.925
2854.76927	7932.225
2857.28724	7893.325
2859.80367	7882.925
2862.31855	7872.225
2864.83189	7861.625
2867.34368	7841.825
2869.85393	7830.725
2872.36264	7809.825
2874.8698	7829.625
2877.37543	7800.025
2879.87952	7798.425
2882.38207	7798.825
2884.88308	7778.225
2887.38256	7784.525
2889.88051	7781.325
2892.37692	7776.125
2894.8718	7777.725
2897.36515	7776.925
2899.85698	7801.625
2902.34727	7801.525
2904.83604	7819.725
2907.32328	7823.825
2909.809	7788.325
2912.29319	7804.825
2914.77587	7776.825
2917.25702	7778.925
2919.73665	7779.325
2922.21476	7775.925
2924.69136	7756.725
2927.16644	7771.725
2929.64	7746.125
2932.11205	7759.625
2934.58258	7722.825
2937.05161	7735.625
2939.51912	7747.825
2941.98513	7713.425
2944.44962	7700.625
2946.91261	7676.725
2949.37409	7680.725
2951.83407	7663.325
2954.29254	7634.325
2956.74951	7628.625
2959.20498	7639.625
2961.65895	7612.925
2964.11142	7621.525
2966.56239	7610.825
2969.01186	7605.325
2971.45984	7564.025
2973.90632	7569.925
2976.35131	7527.825
2978.7948	7522.525
2981.23681	7493.025
2983.67732	7458.025
2986.11635	7445.425
2988.55388	7446.025
2990.98993	7404.625
2993.4245	7390.625
2995.85758	7365.525
2998.28917	7340.025
3000.71928	7344.325
3003.14791	7326.925
3005.57506	7303.025
3008.00073	7283.025
3010.42493	7282.525
3012.84764	7262.925
3015.26888	7233.225
3017.68865	7219.025
3020.10694	7216.425
3022.52376	7207.125
3024.9391	7196.225
3027.35298	7184.525
3029.76539	7178.425
3032.17632	7176.625
3034.5858	7173.025
3036.9938	7177.625
3039.40034	7181.225
3041.80542	7149.125
3044.20903	7125.025
3046.61118	7120.625
3049.01187	7111.325
3051.4111	7123.125
3053.80888	7082.625
3056.20519	7074.425
3058.60005	7042.725
3060.99345	7021.425
3063.3854	7022.325
3065.7759	6980.925
3068.16494	6994.725
3070.55254	6975.925
3072.93868	6974.625
3075.32338	6942.525
3077.70662	6923.525
3080.08842	6907.725
3082.46878	6886.225
3084.84769	6894.125
3087.22515	6876.125
3089.60118	6879.225
3091.97576	6860.325
3094.3489	6867.125
3096.72061	6876.525
3099.09087	6861.125
3101.4597	6845.225
3103.82709	6861.425
3106.19305	6852.325
3108.55757	6847.425
3110.92066	6820.325
3113.28232	6828.425
3115.64255	6797.925
3118.00134	6778.825
3120.35871	6792.725
3122.71466	6765.125
3125.06917	6749.325
3127.42226	6734.025
3129.77393	6745.625
3132.12417	6721.825
3134.47299	6734.725
3136.82039	6725.625
3139.16636	6718.325
3141.51092	6727.125
3143.85406	6706.025
3146.19579	6724.925
3148.53609	6728.925
3150.87499	6721.225
3153.21246	6720.725
3155.54853	6731.025
3157.88318	6708.525
3160.21642	6725.625
3162.54826	6723.725
3164.87868	6726.625
3167.2077	6728.525
3169.5353	6727.725
3171.86151	6725.825
3174.18631	6733.225
3176.5097	6710.725
3178.83169	6721.125
3181.15228	6720.525
3183.47147	6702.625
3185.78926	6708.925
3188.10565	6688.025
3190.42065	6687.925
3192.73424	6646.525
3195.04645	6658.725
3197.35725	6674.325
3199.66667	6647.925
3201.97469	6661.225
3204.28132	6668.325
3206.58656	6675.125
3208.8904	6661.925
3211.19287	6650.725
3213.49394	6650.525
3215.79363	6667.025
3218.09193	6660.225
3220.38884	6652.925
3222.68438	6639.525
3224.97853	6635.525
3227.2713	6641.725
3229.56269	6615.425
3231.8527	6634.825
3234.14133	6616.825
3236.42858	6597.725
3238.71446	6587.725
3240.99896	6570.225
3243.28209	6565.925
3245.56384	6547.925
3247.84423	6566.925
3250.12324	6542.425
3252.40088	6545.825
3254.67715	6534.225
3256.95205	6513.025
3259.22558	6516.325
3261.49775	6486.725
3263.76855	6482.225
3266.03799	6458.425
3268.30606	6458.325
3270.57277	6458.025
3272.83812	6423.625
3275.10211	6413.825
3277.36474	6416.625
3279.62601	6395.425
3281.88593	6395.725
3284.14448	6386.525
3286.40168	6398.725
3288.65753	6388.725
3290.91202	6387.625
3293.16516	6368.925
3295.41695	6344.125
3297.66738	6323.525
3299.91647	6265.125
3302.16421	6230.425
3304.4106	6209.725
3306.65564	6140.825
3308.89933	6101.125
3311.14169	6055.325
3313.38269	6019.425
3315.62236	5966.825
3317.86068	5936.425
3320.09766	5866.125
3322.3333	5831.625
3324.5676	5801.425
3326.80056	5711.025
3329.03219	5673.825
3331.26248	3.325
3333.49143	-0.275
3335.71905	0.225
