Data from AgNP_FTO_APTES_UA_10uM_CRN_200uM_R6G_10uM_NaF_0.1M_Addition_RamanShift__2__18-03-00-878.txt Node

Date: Thu Feb 10 18:03:00 GMT 2022
User: TCL
Spectrometer: QEP01345
Trigger mode: 4
Integration Time (sec): 7.000000E0
Scans to average: 10
Electric dark correction enabled: true
Nonlinearity correction enabled: false
Boxcar width: 0
XAxis mode: Raman Shifts
Number of Pixels in Spectrum: 1044
>>>>>Begin Spectral Data<<<<<
46.04893	0.425
50.45542	-0.975
54.85868	-0.975
59.25871	-1.775
63.6555	61.325
68.04907	65.725
72.43941	68.725
76.82654	68.125
81.21044	75.125
85.59113	71.825
89.96862	78.925
94.34289	80.525
98.71396	81.225
103.08183	85.925
107.4465	93.025
111.80798	89.825
116.16626	92.925
120.52136	103.225
124.87327	104.125
129.222	105.325
133.56755	110.125
137.90993	118.825
142.24913	124.625
146.58517	141.425
150.91804	166.025
155.24774	195.425
159.57429	241.025
163.89768	306.025
168.21792	405.125
172.53501	549.125
176.84895	757.725
181.15975	1076.025
185.46741	1507.525
189.77193	2098.025
194.07331	2799.725
198.37157	3616.425
202.6667	4456.925
206.9587	5304.525
211.24758	6127.525
215.53334	6951.825
219.81599	7802.725
224.09553	8753.625
228.37195	9808.825
232.64527	10940.525
236.91549	12153.725
241.18261	13419.225
245.44663	14595.825
249.70755	15659.925
253.96539	16611.125
258.22014	17446.225
262.4718	18113.725
266.72039	18553.825
270.96589	18798.525
275.20832	18861.225
279.44768	18745.725
283.68397	18507.125
287.91719	18287.225
292.14735	18185.125
296.37445	18124.025
300.59849	18172.025
304.81948	18239.625
309.03742	18189.025
313.25231	18109.925
317.46415	17810.725
321.67296	17479.725
325.87872	17189.225
330.08145	17102.825
334.28114	17105.125
338.47781	17258.725
342.67145	17440.025
346.86207	17708.025
351.04966	17963.525
355.23424	18316.325
359.4158	18617.425
363.59435	18843.025
367.76989	19007.225
371.94243	19169.225
376.11196	19325.925
380.27849	19443.225
384.44203	19574.325
388.60257	19735.425
392.76012	19840.825
396.91468	20067.125
401.06626	20295.325
405.21485	20462.825
409.36047	20451.625
413.50311	20245.625
417.64277	20109.525
421.77947	20083.925
425.9132	20136.425
430.04396	20229.025
434.17176	20328.725
438.2966	20442.625
442.41849	20700.725
446.53742	21143.725
450.6534	21629.325
454.76644	21981.525
458.87653	22050.625
462.98368	21912.925
467.08789	21738.925
471.18916	21518.925
475.2875	21316.025
479.38291	21234.525
483.4754	21087.125
487.56496	20936.125
491.6516	20714.025
495.73531	20546.525
499.81612	20446.225
503.89401	20533.425
507.96899	20595.125
512.04106	20589.125
516.11023	20525.025
520.1765	20462.225
524.23987	20327.625
528.30034	20232.725
532.35792	20116.425
536.41261	19972.425
540.46441	19823.925
544.51333	19814.525
548.55936	19974.525
552.60252	20253.425
556.64279	20622.325
560.6802	20883.825
564.71473	20991.425
568.7464	21167.525
572.7752	21520.725
576.80114	21832.125
580.82422	22208.225
584.84444	22666.725
588.86181	23343.125
592.87633	23873.225
596.888	23791.525
600.89682	23215.725
604.9028	23248.625
608.90594	24627.125
612.90624	26218.925
616.90371	25087.625
620.89834	21998.625
624.89015	20682.125
628.87913	20524.325
632.86528	20585.025
636.84862	20537.325
640.82913	20325.425
644.80683	20025.025
648.78172	19799.125
652.75379	19811.425
656.72306	19977.325
660.68952	20254.925
664.65319	20141.125
668.61405	19874.125
672.57211	19819.425
676.52738	19888.125
680.47986	19932.325
684.42955	19862.825
688.37646	19792.625
692.32058	19872.725
696.26192	20057.425
700.20048	20294.325
704.13626	20398.825
708.06928	20363.325
711.99952	20326.425
715.927	20288.425
719.85171	20355.625
723.77365	20330.625
727.69284	20178.825
731.60928	20019.125
735.52295	19923.325
739.43388	19922.925
743.34206	19985.125
747.24749	20044.025
751.15017	20179.125
755.05012	20371.925
758.94733	20739.125
762.8418	21428.225
766.73354	22521.725
770.62254	23513.625
774.50882	23888.525
778.39237	23243.825
782.27321	22046.625
786.15132	21037.525
790.02671	20402.225
793.89938	20101.525
797.76935	19968.225
801.6366	19941.525
805.50115	19920.825
809.36299	19804.725
813.22213	19741.025
817.07857	19677.625
820.93231	19650.425
824.78336	19570.325
828.63172	19569.325
832.47738	19597.825
836.32036	19616.725
840.16066	19648.225
843.99827	19721.425
847.8332	19690.625
851.66546	19638.525
855.49504	19652.825
859.32195	19688.525
863.1462	19638.825
866.96777	19598.225
870.78668	19559.925
874.60293	19584.025
878.41652	19600.425
882.22745	19628.225
886.03573	19696.925
889.84136	19663.825
893.64433	19627.125
897.44466	19574.625
901.24235	19513.925
905.0374	19430.325
908.8298	19449.025
912.61957	19420.925
916.40671	19540.125
920.19121	19689.425
923.97308	19833.725
927.75233	19923.125
931.52895	19883.325
935.30295	19700.425
939.07433	19448.325
942.84309	19266.825
946.60924	19144.625
950.37278	19138.725
954.13371	19028.825
957.89203	19001.125
961.64774	18955.525
965.40086	18933.925
969.15137	18936.625
972.89929	18871.725
976.64461	18867.625
980.38733	18903.125
984.12747	18928.925
987.86502	19062.125
991.59999	19252.625
995.33237	19452.125
999.06217	19776.825
1002.78939	20100.525
1006.51404	20322.725
1010.23611	20451.325
1013.95561	20557.525
1017.67255	20592.225
1021.38692	20466.125
1025.09872	20285.325
1028.80796	20288.225
1032.51465	20620.925
1036.21877	20997.525
1039.92035	21112.725
1043.61937	20948.325
1047.31584	20686.325
1051.00976	20425.225
1054.70114	20255.025
1058.38998	20223.725
1062.07627	20293.025
1065.76003	20393.525
1069.44126	20480.425
1073.11995	20670.425
1076.79611	20853.225
1080.46974	20970.425
1084.14085	21113.125
1087.80943	21229.325
1091.47549	21318.325
1095.13903	21343.325
1098.80005	21120.825
1102.45857	20898.325
1106.11456	20642.425
1109.76805	20587.225
1113.41903	20639.525
1117.06751	20707.925
1120.71348	20801.425
1124.35696	20982.925
1127.99793	21194.825
1131.63641	21320.725
1135.2724	21207.625
1138.90589	21061.825
1142.5369	20991.025
1146.16542	20979.325
1149.79145	21037.925
1153.415	21136.625
1157.03607	21317.925
1160.65467	21705.225
1164.27079	22442.725
1167.88443	23298.225
1171.49561	24189.025
1175.10432	25367.925
1178.71056	26901.525
1182.31434	28385.525
1185.91565	29083.125
1189.51451	28896.425
1193.11091	28164.725
1196.70485	27260.825
1200.29634	26468.925
1203.88538	25931.125
1207.47197	25629.125
1211.05612	25222.525
1214.63782	24790.725
1218.21708	24326.425
1221.79391	24007.425
1225.36829	23752.025
1228.94024	23532.625
1232.50976	23225.725
1236.07685	22991.125
1239.6415	22850.325
1243.20374	22926.225
1246.76355	23118.725
1250.32093	23389.325
1253.8759	23718.925
1257.42845	24178.125
1260.97859	24637.425
1264.52631	25135.725
1268.07163	25715.925
1271.61453	26280.625
1275.15503	26846.325
1278.69312	27397.925
1282.22882	27914.725
1285.76211	28454.625
1289.29301	29218.825
1292.82151	30263.925
1296.34761	31489.325
1299.87133	33086.525
1303.39266	34857.825
1306.9116	36548.725
1310.42815	37847.625
1313.94233	38392.025
1317.45412	37973.125
1320.96354	36985.125
1324.47058	36077.025
1327.97525	35277.725
1331.47754	34715.125
1334.97747	34339.425
1338.47502	34039.325
1341.97022	33686.125
1345.46305	33358.625
1348.95352	33283.525
1352.44163	33681.925
1355.92738	34754.525
1359.41078	36290.825
1362.89183	37462.725
1366.37053	36774.625
1369.84688	34053.525
1373.32088	30830.425
1376.79254	28660.725
1380.26186	27878.525
1383.72883	27772.425
1387.19347	27718.825
1390.65578	27464.525
1394.11575	27338.025
1397.57339	27545.025
1401.0287	27812.525
1404.48168	28027.125
1407.93234	27995.725
1411.38068	27547.625
1414.82669	26914.625
1418.27039	26149.725
1421.71177	25396.125
1425.15083	24704.825
1428.58758	24377.925
1432.02203	24537.425
1435.45416	25022.525
1438.88399	25568.725
1442.31151	25929.025
1445.73673	26148.825
1449.15965	26286.525
1452.58027	26259.625
1455.9986	26191.325
1459.41463	26258.825
1462.82837	26544.725
1466.23982	26903.625
1469.64898	27237.725
1473.05586	27551.525
1476.46045	27647.925
1479.86276	27616.325
1483.26279	27441.825
1486.66054	27336.025
1490.05602	27448.125
1493.44922	27703.625
1496.84016	28026.925
1500.22882	28586.925
1503.61521	29398.725
1506.99934	30339.425
1510.38121	31170.725
1513.76081	31321.125
1517.13816	30688.725
1520.51324	29622.625
1523.88607	28769.825
1527.25665	28337.525
1530.62498	28191.125
1533.99105	28043.525
1537.35488	27858.625
1540.71647	27466.325
1544.07581	26950.825
1547.4329	26428.925
1550.78776	25991.225
1554.14038	25702.525
1557.49077	25535.225
1560.83892	25439.325
1564.18484	25437.825
1567.52853	25500.425
1570.86999	25745.525
1574.20922	26125.925
1577.54624	26371.025
1580.88103	26485.125
1584.2136	26582.125
1587.54395	27123.725
1590.87208	28157.825
1594.19801	29476.725
1597.52172	30754.625
1600.84321	31085.425
1604.16251	30007.725
1607.47959	28091.025
1610.79447	26151.525
1614.10715	24333.225
1617.41763	23005.025
1620.7259	22155.625
1624.03199	21753.425
1627.33587	21787.125
1630.63757	22233.425
1633.93707	23198.725
1637.23439	24772.925
1640.52951	27097.625
1643.82246	29857.125
1647.11321	32061.625
1650.40179	32452.625
1653.68819	30523.725
1656.97241	27295.825
1660.25446	24156.025
1663.53433	21909.625
1666.81203	20535.825
1670.08756	19588.825
1673.36092	19079.425
1676.63211	18686.725
1679.90115	18425.625
1683.16801	18194.125
1686.43272	18076.725
1689.69527	17991.525
1692.95567	17936.725
1696.2139	17857.425
1699.46999	17838.725
1702.72392	17775.925
1705.97571	17760.425
1709.22535	17698.325
1712.47284	17704.725
1715.71819	17684.025
1718.96139	17644.425
1722.20246	17630.825
1725.44139	17555.825
1728.67818	17453.725
1731.91284	17399.225
1735.14537	17288.325
1738.37576	17271.925
1741.60403	17248.325
1744.83017	17211.725
1748.05418	17179.425
1751.27607	17156.425
1754.49584	17150.825
1757.71349	17141.425
1760.92903	17143.225
1764.14244	17098.625
1767.35375	17106.625
1770.56294	17084.825
1773.77002	17046.225
1776.97499	17033.125
1780.17785	16963.025
1783.37861	16952.725
1786.57727	16915.225
1789.77382	16909.725
1792.96828	16885.425
1796.16064	16846.325
1799.3509	16816.325
1802.53907	16792.125
1805.72514	16761.125
1808.90913	16742.225
1812.09102	16684.125
1815.27083	16643.825
1818.44856	16646.825
1821.6242	16614.025
1824.79776	16583.925
1827.96924	16608.925
1831.13864	16582.425
1834.30597	16550.625
1837.47122	16552.725
1840.6344	16552.025
1843.7955	16541.025
1846.95454	16506.725
1850.11151	16505.425
1853.26642	16506.025
1856.41926	16520.425
1859.57004	16524.825
1862.71876	16491.425
1865.86542	16457.225
1869.01003	16442.125
1872.15258	16418.425
1875.29308	16464.225
1878.43152	16445.225
1881.56792	16400.725
1884.70227	16342.125
1887.83457	16382.125
1890.96482	16338.725
1894.09304	16277.825
1897.21921	16285.425
1900.34335	16275.025
1903.46544	16259.825
1906.58551	16254.325
1909.70353	16226.325
1912.81953	16218.625
1915.93349	16177.425
1919.04543	16146.825
1922.15534	16119.325
1925.26322	16099.425
1928.36908	16090.625
1931.47292	16087.925
1934.57473	16036.825
1937.67453	15995.125
1940.77232	15961.725
1943.86808	15897.825
1946.96184	15874.125
1950.05358	15826.925
1953.14331	15801.725
1956.23103	15729.825
1959.31675	15707.325
1962.40046	15648.725
1965.48217	15607.125
1968.56188	15562.025
1971.63959	15519.325
1974.7153	15472.625
1977.78901	15435.725
1980.86073	15404.625
1983.93046	15365.125
1986.99819	15314.025
1990.06394	15261.825
1993.1277	15262.325
1996.18947	15193.425
1999.24925	15177.425
2002.30706	15105.125
2005.36288	15079.225
2008.41672	15038.825
2011.46859	15001.025
2014.51848	14968.325
2017.56639	14938.225
2020.61233	14915.525
2023.6563	14872.025
2026.6983	14841.725
2029.73833	14796.925
2032.7764	14749.325
2035.8125	14758.025
2038.84664	14705.225
2041.87881	14685.125
2044.90903	14654.125
2047.93729	14623.125
2050.96359	14601.725
2053.98794	14566.925
2057.01034	14602.225
2060.03078	14593.725
2063.04927	14560.525
2066.06582	14567.325
2069.08042	14574.825
2072.09307	14544.425
2075.10378	14570.925
2078.11255	14529.925
2081.11938	14527.125
2084.12426	14514.525
2087.12722	14528.525
2090.12824	14501.125
2093.12732	14501.925
2096.12447	14494.225
2099.11969	14489.625
2102.11299	14507.625
2105.10435	14523.425
2108.09379	14545.125
2111.08131	14518.225
2114.0669	14540.025
2117.05057	14561.425
2120.03233	14562.625
2123.01216	14598.125
2125.99008	14577.725
2128.96609	14608.625
2131.94018	14657.625
2134.91236	14638.225
2137.88263	14641.625
2140.851	14663.825
2143.81746	14682.925
2146.78201	14647.225
2149.74466	14659.725
2152.7054	14679.625
2155.66425	14665.825
2158.6212	14652.725
2161.57625	14649.825
2164.52941	14642.825
2167.48067	14644.825
2170.43004	14660.825
2173.37752	14624.125
2176.32311	14655.425
2179.26681	14668.125
2182.20863	14660.825
2185.14856	14655.425
2188.08661	14628.425
2191.02278	14668.025
2193.95707	14661.725
2196.88948	14712.925
2199.82001	14701.325
2202.74867	14606.225
2205.67545	14614.625
2208.60037	14562.725
2211.52341	14572.525
2214.44458	14583.825
2217.36388	14530.625
2220.28132	14511.925
2223.1969	14477.325
2226.11061	14483.525
2229.02246	14457.525
2231.93245	14429.125
2234.84058	14397.425
2237.74686	14397.425
2240.65128	14349.225
2243.55385	14348.025
2246.45456	14289.625
2249.35343	14269.125
2252.25044	14276.625
2255.14561	14263.625
2258.03893	14290.825
2260.93041	14247.025
2263.82004	14163.725
2266.70783	14158.625
2269.59378	14094.225
2272.4779	14065.125
2275.36017	14050.325
2278.24061	14061.425
2281.11922	14040.225
2283.996	14019.225
2286.87094	14017.625
2289.74405	13981.925
2292.61534	13989.525
2295.4848	13997.725
2298.35243	13983.825
2301.21824	13953.625
2304.08223	13961.225
2306.94439	13976.125
2309.80474	13946.325
2312.66327	13974.425
2315.51999	13973.225
2318.37489	13948.525
2321.22797	13905.125
2324.07925	13931.425
2326.92871	13885.025
2329.77637	13884.025
2332.62222	13848.125
2335.46626	13825.725
2338.3085	13861.825
2341.14893	13855.125
2343.98756	13826.225
2346.8244	13808.825
2349.65943	13797.425
2352.49267	13830.225
2355.32411	13816.525
2358.15376	13799.425
2360.98161	13800.325
2363.80768	13798.025
2366.63195	13765.325
2369.45444	13749.725
2372.27514	13717.325
2375.09405	13673.625
2377.91118	13699.125
2380.72652	13682.025
2383.54009	13626.125
2386.35187	13619.725
2389.16188	13541.125
2391.97011	13531.625
2394.77657	13531.325
2397.58125	13514.725
2400.38416	13497.525
2403.18529	13495.025
2405.98466	13457.025
2408.78226	13421.625
2411.57809	13442.025
2414.37216	13413.325
2417.16446	13382.725
2419.955	13357.025
2422.74378	13370.325
2425.5308	13360.625
2428.31606	13341.425
2431.09956	13345.625
2433.88131	13313.625
2436.6613	13328.725
2439.43954	13316.225
2442.21603	13304.825
2444.99077	13346.425
2447.76377	13311.425
2450.53501	13304.825
2453.30451	13279.225
2456.07226	13241.225
2458.83827	13292.625
2461.60254	13276.625
2464.36507	13275.825
2467.12586	13233.625
2469.88492	13251.925
2472.64224	13241.925
2475.39782	13241.125
2478.15167	13255.825
2480.90379	13219.725
2483.65417	13238.725
2486.40283	13246.625
2489.14976	13246.925
2491.89497	13236.725
2494.63845	13267.025
2497.3802	13220.425
2500.12024	13187.725
2502.85855	13201.325
2505.59514	13208.625
2508.33002	13169.525
2511.06318	13161.025
2513.79462	13141.025
2516.52435	13164.725
2519.25237	13134.325
2521.97867	13097.125
2524.70327	13131.225
2527.42616	13121.125
2530.14734	13105.025
2532.86681	13096.525
2535.58458	13095.425
2538.30065	13080.325
2541.01501	13052.225
2543.72768	13060.625
2546.43864	13040.825
2549.14791	13033.525
2551.85548	13055.425
2554.56136	13021.525
2557.26554	12994.825
2559.96803	12961.525
2562.66883	12955.225
2565.36794	12920.825
2568.06536	12923.125
2570.7611	12890.025
2573.45514	12909.925
2576.14751	12875.525
2578.83819	12876.925
2581.52719	12850.225
2584.21451	12848.425
2586.90015	12823.925
2589.58411	12816.025
2592.2664	12794.725
2594.94701	12797.225
2597.62594	12795.525
2600.30321	12762.525
2602.9788	12726.225
2605.65273	12726.625
2608.32498	12718.825
2610.99557	12702.725
2613.66449	12715.225
2616.33175	12726.625
2618.99734	12697.925
2621.66128	12660.325
2624.32355	12657.625
2626.98416	12656.125
2629.64311	12643.825
2632.30041	12643.325
2634.95605	12615.325
2637.61004	12564.625
2640.26238	12595.525
2642.91306	12592.525
2645.56209	12593.125
2648.20948	12579.125
2650.85521	12521.025
2653.4993	12563.725
2656.14175	12558.025
2658.78255	12551.425
2661.42171	12556.025
2664.05923	12604.325
2666.6951	12615.025
2669.32934	12609.025
2671.96194	12590.925
2674.59291	12604.025
2677.22224	12582.425
2679.84993	12600.925
2682.476	12576.925
2685.10043	12576.825
2687.72324	12528.225
2690.34441	12565.725
2692.96396	12558.225
2695.58188	12571.425
2698.19818	12536.125
2700.81285	12542.925
2703.4259	12553.625
2706.03733	12597.025
2708.64714	12563.825
2711.25533	12599.925
2713.86191	12564.025
2716.46687	12567.225
2719.07021	12576.525
2721.67194	12618.825
2724.27206	12593.725
2726.87057	12599.925
2729.46747	12632.425
2732.06276	12643.725
2734.65644	12582.925
2737.24852	12613.025
2739.83899	12586.225
2742.42786	12589.425
2745.01513	12535.525
2747.60079	12557.125
2750.18486	12524.325
2752.76733	12511.125
2755.3482	12512.225
2757.92747	12501.525
2760.50515	12503.925
2763.08123	12465.425
2765.65573	12460.325
2768.22863	12469.925
2770.79994	12467.825
2773.36967	12465.725
2775.9378	12425.725
2778.50435	12454.025
2781.06932	12462.425
2783.6327	12434.425
2786.1945	12441.525
2788.75471	12432.125
2791.31335	12400.425
2793.87041	12380.725
2796.42589	12352.225
2798.97979	12386.325
2801.53212	12318.625
2804.08288	12311.725
2806.63206	12269.525
2809.17967	12257.625
2811.72571	12209.025
2814.27018	12188.325
2816.81308	12184.525
2819.35442	12175.225
2821.89419	12127.625
2824.43239	12158.225
2826.96904	12100.125
2829.50412	12082.925
2832.03763	12111.525
2834.56959	12126.325
2837.1	12099.825
2839.62884	12109.925
2842.15613	12102.025
2844.68186	12125.625
2847.20604	12140.525
2849.72867	12151.425
2852.24974	12162.325
2854.76927	12116.425
2857.28724	12107.425
2859.80367	12073.325
2862.31855	12049.625
2864.83189	12059.325
2867.34368	12038.925
2869.85393	12037.625
2872.36264	12030.925
2874.8698	12015.125
2877.37543	12003.625
2879.87952	12011.425
2882.38207	12014.825
2884.88308	12005.425
2887.38256	12038.925
2889.88051	12029.225
2892.37692	12019.825
2894.8718	12026.225
2897.36515	12058.225
2899.85698	12048.625
2902.34727	12071.825
2904.83604	12085.225
2907.32328	12100.925
2909.809	12079.625
2912.29319	12079.825
2914.77587	12101.925
2917.25702	12074.625
2919.73665	12069.925
2922.21476	12072.325
2924.69136	12058.125
2927.16644	12076.425
2929.64	12047.325
2932.11205	12028.125
2934.58258	12016.225
2937.05161	12045.825
2939.51912	12017.425
2941.98513	12025.725
2944.44962	11969.825
2946.91261	11913.225
2949.37409	11989.925
2951.83407	11952.425
2954.29254	11958.925
2956.74951	11936.025
2959.20498	11933.725
2961.65895	11928.825
2964.11142	11911.425
2966.56239	11915.925
2969.01186	11927.125
2971.45984	11881.525
2973.90632	11892.825
2976.35131	11862.525
2978.7948	11843.325
2981.23681	11803.425
2983.67732	11795.525
2986.11635	11769.625
2988.55388	11764.825
2990.98993	11742.925
2993.4245	11729.825
2995.85758	11679.825
2998.28917	11649.825
3000.71928	11652.625
3003.14791	11615.725
3005.57506	11597.825
3008.00073	11606.625
3010.42493	11603.125
3012.84764	11574.525
3015.26888	11589.425
3017.68865	11525.625
3020.10694	11520.425
3022.52376	11525.925
3024.9391	11488.325
3027.35298	11477.325
3029.76539	11472.825
3032.17632	11483.625
3034.5858	11471.025
3036.9938	11477.025
3039.40034	11462.825
3041.80542	11470.425
3044.20903	11425.325
3046.61118	11411.825
3049.01187	11396.725
3051.4111	11384.725
3053.80888	11368.225
3056.20519	11350.725
3058.60005	11320.625
3060.99345	11329.525
3063.3854	11328.525
3065.7759	11280.625
3068.16494	11291.325
3070.55254	11255.825
3072.93868	11212.525
3075.32338	11217.025
3077.70662	11207.425
3080.08842	11167.025
3082.46878	11162.525
3084.84769	11147.725
3087.22515	11158.125
3089.60118	11135.925
3091.97576	11150.825
3094.3489	11135.825
3096.72061	11144.725
3099.09087	11165.125
3101.4597	11171.325
3103.82709	11151.325
3106.19305	11118.025
3108.55757	11116.025
3110.92066	11085.625
3113.28232	11083.225
3115.64255	11079.125
3118.00134	11071.325
3120.35871	11028.525
3122.71466	11019.025
3125.06917	10996.125
3127.42226	10951.125
3129.77393	10979.125
3132.12417	10952.125
3134.47299	10939.625
3136.82039	10967.425
3139.16636	10954.425
3141.51092	10975.525
3143.85406	10998.225
3146.19579	10978.125
3148.53609	10963.025
3150.87499	10960.625
3153.21246	10996.525
3155.54853	11017.025
3157.88318	10983.925
3160.21642	11016.025
3162.54826	11010.625
3164.87868	11006.125
3167.2077	11005.525
3169.5353	11026.025
3171.86151	11035.225
3174.18631	11019.125
3176.5097	10996.425
3178.83169	11011.125
3181.15228	10986.225
3183.47147	10981.825
3185.78926	11011.225
3188.10565	10958.225
3190.42065	10925.025
3192.73424	10942.825
3195.04645	10934.825
3197.35725	10910.125
3199.66667	10903.725
3201.97469	10938.025
3204.28132	10950.425
3206.58656	10978.925
3208.8904	10926.825
3211.19287	10945.825
3213.49394	10962.325
3215.79363	10951.625
3218.09193	10988.425
3220.38884	10963.325
3222.68438	10960.925
3224.97853	10961.825
3227.2713	10958.225
3229.56269	10937.825
3231.8527	10932.925
3234.14133	10921.525
3236.42858	10930.325
3238.71446	10890.725
3240.99896	10887.725
3243.28209	10850.025
3245.56384	10826.325
3247.84423	10863.725
3250.12324	10853.725
3252.40088	10833.725
3254.67715	10791.325
3256.95205	10781.625
3259.22558	10814.225
3261.49775	10801.125
3263.76855	10785.425
3266.03799	10743.625
3268.30606	10758.025
3270.57277	10741.325
3272.83812	10741.425
3275.10211	10709.925
3277.36474	10707.525
3279.62601	10679.625
3281.88593	10615.325
3284.14448	10648.825
3286.40168	10648.725
3288.65753	10675.425
3290.91202	10667.325
3293.16516	10639.325
3295.41695	10608.425
3297.66738	10560.625
3299.91647	10518.625
3302.16421	10433.525
3304.4106	10385.325
3306.65564	10353.525
3308.89933	10242.025
3311.14169	10184.525
3313.38269	10114.225
3315.62236	10059.325
3317.86068	9963.125
3320.09766	9884.025
3322.3333	9839.225
3324.5676	9783.525
3326.80056	9630.025
3329.03219	9564.125
3331.26248	4.925
3333.49143	0.225
3335.71905	-1.275
