Data from AgNP_FTO_APTES_UA_10uM_CRN_200uM_R6G_10uM_NaF_0.1M_Addition_RamanShift__23__18-27-30-909.txt Node

Date: Thu Feb 10 18:27:30 GMT 2022
User: TCL
Spectrometer: QEP01345
Trigger mode: 4
Integration Time (sec): 7.000000E0
Scans to average: 10
Electric dark correction enabled: true
Nonlinearity correction enabled: false
Boxcar width: 0
XAxis mode: Raman Shifts
Number of Pixels in Spectrum: 1044
>>>>>Begin Spectral Data<<<<<
46.04893	-0.375
50.45542	-1.175
54.85868	-1.975
59.25871	-0.375
63.6555	62.725
68.04907	65.425
72.43941	70.125
76.82654	70.825
81.21044	77.525
85.59113	76.625
89.96862	81.425
94.34289	85.125
98.71396	87.725
103.08183	90.325
107.4465	93.025
111.80798	88.825
116.16626	95.425
120.52136	99.025
124.87327	102.925
129.222	107.725
133.56755	120.525
137.90993	120.125
142.24913	130.925
146.58517	144.525
150.91804	168.825
155.24774	199.425
159.57429	245.525
163.89768	312.425
168.21792	416.125
172.53501	563.525
176.84895	777.425
181.15975	1100.625
185.46741	1549.825
189.77193	2152.425
194.07331	2872.525
198.37157	3704.025
202.6667	4591.725
206.9587	5469.325
211.24758	6310.125
215.53334	7189.325
219.81599	8059.125
224.09553	9020.425
228.37195	10110.225
232.64527	11327.025
236.91549	12576.925
241.18261	13855.125
245.44663	15109.925
249.70755	16252.625
253.96539	17266.325
258.22014	18104.025
262.4718	18819.325
266.72039	19321.825
270.96589	19613.625
275.20832	19749.925
279.44768	19667.525
283.68397	19464.225
287.91719	19305.525
292.14735	19212.525
296.37445	19173.025
300.59849	19200.625
304.81948	19193.825
309.03742	19072.925
313.25231	18823.725
317.46415	18466.125
321.67296	18064.325
325.87872	17730.725
330.08145	17596.325
334.28114	17641.025
338.47781	17790.525
342.67145	17994.025
346.86207	18256.325
351.04966	18560.925
355.23424	18946.125
359.4158	19228.525
363.59435	19507.925
367.76989	19732.225
371.94243	19913.325
376.11196	20040.125
380.27849	20205.425
384.44203	20343.425
388.60257	20492.525
392.76012	20582.025
396.91468	20784.225
401.06626	21008.625
405.21485	21249.825
409.36047	21181.725
413.50311	20980.025
417.64277	20800.425
421.77947	20782.825
425.9132	20843.425
430.04396	21007.225
434.17176	21181.225
438.2966	21408.125
442.41849	21725.725
446.53742	22210.125
450.6534	22723.325
454.76644	23207.025
458.87653	23326.125
462.98368	23283.625
467.08789	23022.125
471.18916	22829.225
475.2875	22658.125
479.38291	22615.925
483.4754	22502.725
487.56496	22279.925
491.6516	21991.825
495.73531	21678.325
499.81612	21544.425
503.89401	21527.625
507.96899	21613.025
512.04106	21584.925
516.11023	21551.025
520.1765	21467.425
524.23987	21366.125
528.30034	21263.725
532.35792	21154.825
536.41261	21000.425
540.46441	20856.425
544.51333	20901.325
548.55936	21028.125
552.60252	21352.225
556.64279	21665.725
560.6802	21916.325
564.71473	22099.325
568.7464	22338.125
572.7752	22691.125
576.80114	22838.025
580.82422	22911.025
584.84444	23022.325
588.86181	23245.125
592.87633	23547.525
596.888	23766.725
600.89682	23777.825
604.9028	24201.425
608.90594	25628.025
612.90624	27379.625
616.90371	26297.025
620.89834	23086.125
624.89015	21650.525
628.87913	21495.925
632.86528	21573.125
636.84862	21529.025
640.82913	21370.025
644.80683	21043.025
648.78172	20704.825
652.75379	20666.825
656.72306	20817.525
660.68952	21095.425
664.65319	21073.625
668.61405	20797.025
672.57211	20746.725
676.52738	20746.425
680.47986	20831.025
684.42955	20760.325
688.37646	20714.025
692.32058	20757.225
696.26192	20907.725
700.20048	21036.825
704.13626	21148.825
708.06928	21097.325
711.99952	21031.525
715.927	20952.325
719.85171	20912.325
723.77365	20947.925
727.69284	20905.125
731.60928	20795.925
735.52295	20785.825
739.43388	20785.825
743.34206	20830.825
747.24749	20870.825
751.15017	20993.625
755.05012	21175.525
758.94733	21608.225
762.8418	22321.825
766.73354	23449.225
770.62254	24560.825
774.50882	25007.925
778.39237	24240.325
782.27321	22869.225
786.15132	21755.525
790.02671	21087.825
793.89938	20735.525
797.76935	20614.025
801.6366	20613.225
805.50115	20592.825
809.36299	20526.225
813.22213	20476.525
817.07857	20457.425
820.93231	20425.825
824.78336	20393.725
828.63172	20372.825
832.47738	20387.625
836.32036	20392.025
840.16066	20395.325
843.99827	20407.625
847.8332	20421.225
851.66546	20372.225
855.49504	20373.825
859.32195	20370.325
863.1462	20373.525
866.96777	20340.425
870.78668	20306.225
874.60293	20288.925
878.41652	20281.025
882.22745	20332.425
886.03573	20393.925
889.84136	20348.025
893.64433	20338.025
897.44466	20264.325
901.24235	20194.325
905.0374	20109.325
908.8298	20077.725
912.61957	20104.025
916.40671	20195.425
920.19121	20335.125
923.97308	20465.525
927.75233	20476.825
931.52895	20460.325
935.30295	20341.925
939.07433	20092.625
942.84309	19889.325
946.60924	19782.525
950.37278	19714.825
954.13371	19631.625
957.89203	19564.425
961.64774	19525.425
965.40086	19507.125
969.15137	19388.925
972.89929	19346.125
976.64461	19305.725
980.38733	19317.825
984.12747	19355.825
987.86502	19506.525
991.59999	19674.225
995.33237	19919.125
999.06217	20263.325
1002.78939	20646.825
1006.51404	20906.525
1010.23611	20999.625
1013.95561	21121.325
1017.67255	21184.825
1021.38692	21014.925
1025.09872	20867.625
1028.80796	20921.025
1032.51465	21219.325
1036.21877	21499.925
1039.92035	21573.125
1043.61937	21420.425
1047.31584	21105.325
1051.00976	20769.725
1054.70114	20631.625
1058.38998	20642.925
1062.07627	20730.825
1065.76003	20838.825
1069.44126	20870.025
1073.11995	20950.825
1076.79611	21038.825
1080.46974	21140.025
1084.14085	21214.725
1087.80943	21376.925
1091.47549	21529.425
1095.13903	21479.325
1098.80005	21342.125
1102.45857	21149.325
1106.11456	20971.725
1109.76805	20943.325
1113.41903	21068.225
1117.06751	21226.325
1120.71348	21441.625
1124.35696	21614.525
1127.99793	21833.125
1131.63641	21949.925
1135.2724	21785.125
1138.90589	21550.925
1142.5369	21412.825
1146.16542	21367.825
1149.79145	21380.525
1153.415	21486.825
1157.03607	21699.425
1160.65467	22104.125
1164.27079	22695.925
1167.88443	23464.025
1171.49561	24511.925
1175.10432	25835.125
1178.71056	27518.925
1182.31434	29034.825
1185.91565	29910.725
1189.51451	29903.425
1193.11091	29286.025
1196.70485	28345.425
1200.29634	27497.525
1203.88538	26808.625
1207.47197	26233.325
1211.05612	25780.325
1214.63782	25328.025
1218.21708	25035.525
1221.79391	24846.725
1225.36829	24733.825
1228.94024	24469.925
1232.50976	24123.925
1236.07685	23850.625
1239.6415	23734.525
1243.20374	23818.425
1246.76355	23940.025
1250.32093	24227.325
1253.8759	24598.125
1257.42845	25097.825
1260.97859	25538.225
1264.52631	25953.425
1268.07163	26389.325
1271.61453	26900.425
1275.15503	27459.725
1278.69312	27983.625
1282.22882	28466.325
1285.76211	28973.825
1289.29301	29547.325
1292.82151	30446.125
1296.34761	31586.625
1299.87133	33043.325
1303.39266	34624.625
1306.9116	36359.325
1310.42815	38136.725
1313.94233	39242.225
1317.45412	39319.325
1320.96354	38730.525
1324.47058	37977.225
1327.97525	37296.925
1331.47754	36815.425
1334.97747	36633.225
1338.47502	36842.925
1341.97022	37048.425
1345.46305	36847.525
1348.95352	36393.525
1352.44163	35998.925
1355.92738	36129.325
1359.41078	37120.525
1362.89183	38197.325
1366.37053	37482.825
1369.84688	34834.025
1373.32088	31780.625
1376.79254	29636.025
1380.26186	28836.125
1383.72883	28740.425
1387.19347	28786.525
1390.65578	28707.625
1394.11575	28876.825
1397.57339	29267.925
1401.0287	29858.925
1404.48168	30438.825
1407.93234	30758.025
1411.38068	30659.825
1414.82669	30062.825
1418.27039	29027.125
1421.71177	27914.525
1425.15083	26926.225
1428.58758	26305.525
1432.02203	26253.025
1435.45416	26543.825
1438.88399	26966.425
1442.31151	27477.925
1445.73673	27916.225
1449.15965	28301.825
1452.58027	28673.425
1455.9986	28856.925
1459.41463	28987.325
1462.82837	29290.625
1466.23982	29691.525
1469.64898	30068.225
1473.05586	30347.625
1476.46045	30343.025
1479.86276	30188.225
1483.26279	29903.825
1486.66054	29652.725
1490.05602	29609.325
1493.44922	29637.325
1496.84016	29634.125
1500.22882	29798.325
1503.61521	30306.525
1506.99934	31086.925
1510.38121	31941.525
1513.76081	32297.525
1517.13816	31830.825
1520.51324	30752.025
1523.88607	29706.525
1527.25665	29056.225
1530.62498	28873.525
1533.99105	28782.725
1537.35488	28771.425
1540.71647	28713.725
1544.07581	28424.525
1547.4329	28103.525
1550.78776	27772.225
1554.14038	27499.125
1557.49077	27410.525
1560.83892	27366.825
1564.18484	27332.625
1567.52853	27279.725
1570.86999	27386.825
1574.20922	27604.325
1577.54624	27867.825
1580.88103	27970.325
1584.2136	28116.025
1587.54395	28676.825
1590.87208	29683.125
1594.19801	31096.625
1597.52172	32601.725
1600.84321	33259.325
1604.16251	32366.125
1607.47959	30441.325
1610.79447	28336.925
1614.10715	26285.825
1617.41763	24706.925
1620.7259	23568.325
1624.03199	22988.125
1627.33587	22874.825
1630.63757	23309.725
1633.93707	24274.325
1637.23439	25823.025
1640.52951	27887.925
1643.82246	30247.125
1647.11321	32148.125
1650.40179	32543.525
1653.68819	30977.325
1656.97241	28055.825
1660.25446	24972.925
1663.53433	22658.325
1666.81203	21129.225
1670.08756	20176.525
1673.36092	19560.125
1676.63211	19127.425
1679.90115	18812.825
1683.16801	18572.425
1686.43272	18426.325
1689.69527	18309.725
1692.95567	18200.825
1696.2139	18155.725
1699.46999	18147.125
1702.72392	18117.625
1705.97571	18032.025
1709.22535	17972.925
1712.47284	17964.225
1715.71819	17987.925
1718.96139	17927.225
1722.20246	17887.725
1725.44139	17881.925
1728.67818	17742.325
1731.91284	17665.125
1735.14537	17623.025
1738.37576	17562.525
1741.60403	17527.525
1744.83017	17500.125
1748.05418	17452.525
1751.27607	17414.725
1754.49584	17429.325
1757.71349	17418.725
1760.92903	17360.325
1764.14244	17329.425
1767.35375	17324.425
1770.56294	17313.925
1773.77002	17299.925
1776.97499	17292.325
1780.17785	17265.925
1783.37861	17226.525
1786.57727	17190.425
1789.77382	17167.425
1792.96828	17120.625
1796.16064	17105.625
1799.3509	17089.225
1802.53907	17060.025
1805.72514	17004.325
1808.90913	16991.325
1812.09102	16981.225
1815.27083	16901.425
1818.44856	16867.125
1821.6242	16892.525
1824.79776	16820.225
1827.96924	16809.725
1831.13864	16816.625
1834.30597	16789.325
1837.47122	16799.425
1840.6344	16811.825
1843.7955	16784.825
1846.95454	16752.525
1850.11151	16777.125
1853.26642	16750.225
1856.41926	16766.225
1859.57004	16768.225
1862.71876	16762.525
1865.86542	16743.625
1869.01003	16728.325
1872.15258	16718.925
1875.29308	16712.325
1878.43152	16698.625
1881.56792	16692.025
1884.70227	16688.325
1887.83457	16658.725
1890.96482	16629.225
1894.09304	16617.925
1897.21921	16585.725
1900.34335	16601.425
1903.46544	16589.225
1906.58551	16580.625
1909.70353	16575.925
1912.81953	16573.125
1915.93349	16525.525
1919.04543	16480.725
1922.15534	16476.825
1925.26322	16437.125
1928.36908	16423.525
1931.47292	16384.525
1934.57473	16352.225
1937.67453	16338.725
1940.77232	16271.125
1943.86808	16212.825
1946.96184	16143.225
1950.05358	16130.425
1953.14331	16055.125
1956.23103	16010.425
1959.31675	15981.325
1962.40046	15923.425
1965.48217	15883.925
1968.56188	15839.525
1971.63959	15769.925
1974.7153	15747.025
1977.78901	15726.525
1980.86073	15690.125
1983.93046	15610.625
1986.99819	15588.825
1990.06394	15546.925
1993.1277	15552.125
1996.18947	15471.425
1999.24925	15417.925
2002.30706	15363.925
2005.36288	15348.325
2008.41672	15281.825
2011.46859	15258.925
2014.51848	15233.625
2017.56639	15181.525
2020.61233	15151.325
2023.6563	15089.125
2026.6983	15063.425
2029.73833	15042.825
2032.7764	15005.525
2035.8125	14983.125
2038.84664	14946.725
2041.87881	14917.725
2044.90903	14870.425
2047.93729	14896.125
2050.96359	14860.925
2053.98794	14833.625
2057.01034	14823.025
2060.03078	14815.025
2063.04927	14798.625
2066.06582	14820.425
2069.08042	14804.625
2072.09307	14793.625
2075.10378	14797.525
2078.11255	14772.525
2081.11938	14781.125
2084.12426	14762.325
2087.12722	14752.825
2090.12824	14728.325
2093.12732	14707.425
2096.12447	14732.925
2099.11969	14713.425
2102.11299	14708.725
2105.10435	14747.525
2108.09379	14724.725
2111.08131	14744.425
2114.0669	14741.725
2117.05057	14768.325
2120.03233	14790.825
2123.01216	14829.225
2125.99008	14786.025
2128.96609	14781.025
2131.94018	14818.525
2134.91236	14830.625
2137.88263	14858.825
2140.851	14864.025
2143.81746	14830.525
2146.78201	14846.525
2149.74466	14866.925
2152.7054	14882.025
2155.66425	14842.725
2158.6212	14861.225
2161.57625	14834.825
2164.52941	14803.025
2167.48067	14833.925
2170.43004	14815.025
2173.37752	14821.725
2176.32311	14842.925
2179.26681	14866.525
2182.20863	14837.425
2185.14856	14839.725
2188.08661	14830.825
2191.02278	14826.425
2193.95707	14850.325
2196.88948	14845.925
2199.82001	14831.325
2202.74867	14794.525
2205.67545	14798.325
2208.60037	14793.425
2211.52341	14743.825
2214.44458	14770.225
2217.36388	14738.525
2220.28132	14690.525
2223.1969	14690.825
2226.11061	14680.925
2229.02246	14618.725
2231.93245	14605.725
2234.84058	14574.225
2237.74686	14565.525
2240.65128	14553.525
2243.55385	14477.025
2246.45456	14494.725
2249.35343	14454.325
2252.25044	14443.825
2255.14561	14409.225
2258.03893	14394.625
2260.93041	14387.425
2263.82004	14362.725
2266.70783	14312.825
2269.59378	14277.825
2272.4779	14241.125
2275.36017	14196.425
2278.24061	14175.925
2281.11922	14168.425
2283.996	14151.525
2286.87094	14154.425
2289.74405	14123.825
2292.61534	14120.425
2295.4848	14113.625
2298.35243	14127.925
2301.21824	14103.225
2304.08223	14107.425
2306.94439	14137.425
2309.80474	14106.425
2312.66327	14114.925
2315.51999	14080.625
2318.37489	14095.025
2321.22797	14071.425
2324.07925	14021.225
2326.92871	13997.125
2329.77637	14021.325
2332.62222	14002.025
2335.46626	13982.925
2338.3085	13961.125
2341.14893	13981.425
2343.98756	13953.025
2346.8244	13963.025
2349.65943	13973.725
2352.49267	13943.425
2355.32411	13935.425
2358.15376	13953.025
2360.98161	13883.125
2363.80768	13938.725
2366.63195	13922.725
2369.45444	13884.125
2372.27514	13855.025
2375.09405	13834.325
2377.91118	13843.525
2380.72652	13796.525
2383.54009	13750.725
2386.35187	13731.325
2389.16188	13701.825
2391.97011	13703.525
2394.77657	13632.325
2397.58125	13628.725
2400.38416	13612.625
2403.18529	13579.825
2405.98466	13552.625
2408.78226	13518.725
2411.57809	13507.325
2414.37216	13503.425
2417.16446	13473.425
2419.955	13464.425
2422.74378	13457.325
2425.5308	13464.625
2428.31606	13422.625
2431.09956	13430.325
2433.88131	13420.525
2436.6613	13414.125
2439.43954	13411.625
2442.21603	13380.325
2444.99077	13379.325
2447.76377	13383.125
2450.53501	13383.125
2453.30451	13381.025
2456.07226	13344.125
2458.83827	13337.325
2461.60254	13355.325
2464.36507	13336.425
2467.12586	13328.025
2469.88492	13281.625
2472.64224	13310.925
2475.39782	13311.325
2478.15167	13351.925
2480.90379	13308.525
2483.65417	13344.325
2486.40283	13337.825
2489.14976	13329.225
2491.89497	13311.925
2494.63845	13348.625
2497.3802	13317.725
2500.12024	13319.825
2502.85855	13315.725
2505.59514	13293.625
2508.33002	13282.225
2511.06318	13261.025
2513.79462	13251.825
2516.52435	13245.425
2519.25237	13229.825
2521.97867	13210.025
2524.70327	13193.725
2527.42616	13208.225
2530.14734	13217.525
2532.86681	13199.025
2535.58458	13183.225
2538.30065	13196.325
2541.01501	13162.925
2543.72768	13161.525
2546.43864	13156.125
2549.14791	13115.525
2551.85548	13120.125
2554.56136	13092.825
2557.26554	13094.925
2559.96803	13054.925
2562.66883	13038.125
2565.36794	13024.325
2568.06536	13007.225
2570.7611	12970.525
2573.45514	12986.825
2576.14751	12926.125
2578.83819	12917.825
2581.52719	12919.625
2584.21451	12890.925
2586.90015	12883.725
2589.58411	12873.025
2592.2664	12895.525
2594.94701	12858.625
2597.62594	12878.725
2600.30321	12869.225
2602.9788	12816.125
2605.65273	12812.225
2608.32498	12802.925
2610.99557	12813.025
2613.66449	12785.525
2616.33175	12744.725
2618.99734	12791.925
2621.66128	12787.225
2624.32355	12780.025
2626.98416	12787.625
2629.64311	12760.925
2632.30041	12759.925
2634.95605	12733.925
2637.61004	12696.325
2640.26238	12694.625
2642.91306	12695.525
2645.56209	12671.825
2648.20948	12687.825
2650.85521	12668.525
2653.4993	12677.425
2656.14175	12670.525
2658.78255	12685.225
2661.42171	12645.725
2664.05923	12677.925
2666.6951	12694.425
2669.32934	12726.425
2671.96194	12680.525
2674.59291	12696.725
2677.22224	12707.725
2679.84993	12725.325
2682.476	12679.325
2685.10043	12688.625
2687.72324	12630.325
2690.34441	12656.725
2692.96396	12681.325
2695.58188	12654.525
2698.19818	12626.825
2700.81285	12641.925
2703.4259	12653.525
2706.03733	12658.125
2708.64714	12652.625
2711.25533	12667.925
2713.86191	12668.825
2716.46687	12654.025
2719.07021	12686.025
2721.67194	12677.425
2724.27206	12688.725
2726.87057	12685.125
2729.46747	12678.525
2732.06276	12702.625
2734.65644	12683.025
2737.24852	12710.525
2739.83899	12662.225
2742.42786	12692.325
2745.01513	12643.825
2747.60079	12661.225
2750.18486	12640.525
2752.76733	12612.525
2755.3482	12591.025
2757.92747	12602.725
2760.50515	12556.025
2763.08123	12567.925
2765.65573	12571.325
2768.22863	12570.225
2770.79994	12554.025
2773.36967	12565.125
2775.9378	12568.025
2778.50435	12552.325
2781.06932	12529.325
2783.6327	12552.625
2786.1945	12548.725
2788.75471	12537.325
2791.31335	12488.125
2793.87041	12509.225
2796.42589	12476.425
2798.97979	12434.625
2801.53212	12425.425
2804.08288	12399.425
2806.63206	12398.625
2809.17967	12365.125
2811.72571	12321.425
2814.27018	12296.825
2816.81308	12299.225
2819.35442	12246.525
2821.89419	12222.525
2824.43239	12229.725
2826.96904	12202.425
2829.50412	12197.625
2832.03763	12183.325
2834.56959	12215.425
2837.1	12166.125
2839.62884	12166.225
2842.15613	12178.325
2844.68186	12214.725
2847.20604	12205.325
2849.72867	12224.525
2852.24974	12212.825
2854.76927	12210.425
2857.28724	12156.225
2859.80367	12137.025
2862.31855	12132.225
2864.83189	12123.625
2867.34368	12109.025
2869.85393	12098.825
2872.36264	12107.725
2874.8698	12111.325
2877.37543	12096.925
2879.87952	12086.225
2882.38207	12078.025
2884.88308	12076.425
2887.38256	12099.825
2889.88051	12091.125
2892.37692	12072.325
2894.8718	12087.625
2897.36515	12098.625
2899.85698	12119.025
2902.34727	12158.125
2904.83604	12130.525
2907.32328	12159.625
2909.809	12164.825
2912.29319	12155.625
2914.77587	12166.625
2917.25702	12162.425
2919.73665	12135.425
2922.21476	12160.125
2924.69136	12122.125
2927.16644	12139.625
2929.64	12100.525
2932.11205	12097.525
2934.58258	12092.825
2937.05161	12094.625
2939.51912	12102.725
2941.98513	12076.125
2944.44962	12065.725
2946.91261	12017.125
2949.37409	12033.825
2951.83407	12012.425
2954.29254	12010.325
2956.74951	11991.425
2959.20498	11977.525
2961.65895	11960.425
2964.11142	11968.525
2966.56239	11953.625
2969.01186	11937.925
2971.45984	11913.625
2973.90632	11899.525
2976.35131	11862.725
2978.7948	11876.125
2981.23681	11825.525
2983.67732	11800.625
2986.11635	11812.125
2988.55388	11782.825
2990.98993	11744.925
2993.4245	11734.925
2995.85758	11686.625
2998.28917	11660.725
3000.71928	11647.625
3003.14791	11606.725
3005.57506	11623.125
3008.00073	11587.825
3010.42493	11595.425
3012.84764	11573.325
3015.26888	11559.425
3017.68865	11524.625
3020.10694	11510.225
3022.52376	11506.125
3024.9391	11489.025
3027.35298	11456.325
3029.76539	11460.325
3032.17632	11467.625
3034.5858	11453.125
3036.9938	11440.125
3039.40034	11460.625
3041.80542	11463.025
3044.20903	11408.425
3046.61118	11404.825
3049.01187	11373.725
3051.4111	11357.025
3053.80888	11364.225
3056.20519	11348.825
3058.60005	11313.125
3060.99345	11270.225
3063.3854	11249.625
3065.7759	11233.725
3068.16494	11219.325
3070.55254	11194.125
3072.93868	11200.925
3075.32338	11143.225
3077.70662	11129.625
3080.08842	11120.525
3082.46878	11093.625
3084.84769	11060.825
3087.22515	11079.725
3089.60118	11090.625
3091.97576	11063.125
3094.3489	11070.125
3096.72061	11083.125
3099.09087	11041.025
3101.4597	11074.825
3103.82709	11052.125
3106.19305	11049.425
3108.55757	11038.125
3110.92066	10994.825
3113.28232	10992.725
3115.64255	10992.825
3118.00134	10966.025
3120.35871	10966.125
3122.71466	10945.625
3125.06917	10875.525
3127.42226	10872.325
3129.77393	10888.425
3132.12417	10846.125
3134.47299	10833.125
3136.82039	10849.225
3139.16636	10859.625
3141.51092	10842.025
3143.85406	10850.525
3146.19579	10854.425
3148.53609	10839.225
3150.87499	10848.025
3153.21246	10871.325
3155.54853	10896.325
3157.88318	10884.825
3160.21642	10874.325
3162.54826	10876.925
3164.87868	10888.325
3167.2077	10860.525
3169.5353	10876.725
3171.86151	10907.325
3174.18631	10893.825
3176.5097	10872.525
3178.83169	10846.925
3181.15228	10856.825
3183.47147	10834.725
3185.78926	10828.325
3188.10565	10824.725
3190.42065	10803.825
3192.73424	10816.525
3195.04645	10792.725
3197.35725	10800.225
3199.66667	10779.225
3201.97469	10804.425
3204.28132	10822.925
3206.58656	10833.525
3208.8904	10840.525
3211.19287	10816.625
3213.49394	10829.225
3215.79363	10815.325
3218.09193	10844.825
3220.38884	10826.325
3222.68438	10847.425
3224.97853	10823.525
3227.2713	10828.925
3229.56269	10801.725
3231.8527	10825.825
3234.14133	10784.425
3236.42858	10786.625
3238.71446	10766.925
3240.99896	10732.925
3243.28209	10719.825
3245.56384	10702.025
3247.84423	10718.425
3250.12324	10709.525
3252.40088	10674.825
3254.67715	10649.425
3256.95205	10637.725
3259.22558	10674.825
3261.49775	10639.125
3263.76855	10623.625
3266.03799	10613.525
3268.30606	10597.025
3270.57277	10571.725
3272.83812	10592.925
3275.10211	10578.725
3277.36474	10521.625
3279.62601	10533.525
3281.88593	10479.625
3284.14448	10506.225
3286.40168	10509.525
3288.65753	10504.125
3290.91202	10506.925
3293.16516	10481.125
3295.41695	10442.125
3297.66738	10411.725
3299.91647	10348.625
3302.16421	10266.025
3304.4106	10234.925
3306.65564	10171.125
3308.89933	10112.425
3311.14169	10046.625
3313.38269	9929.125
3315.62236	9901.025
3317.86068	9817.125
3320.09766	9738.325
3322.3333	9670.525
3324.5676	9624.525
3326.80056	9500.325
3329.03219	9401.925
3331.26248	4.125
3333.49143	0.325
3335.71905	-0.575
