Data from AgNP_FTO_APTES_UA_10uM_CRN_1uM_R6G_10uM_NaF_0.1M_Addition_RamanShift__22__13-18-20-523.txt Node

Date: Thu Feb 10 13:18:20 GMT 2022
User: TCL
Spectrometer: QEP01345
Trigger mode: 4
Integration Time (sec): 7.000000E0
Scans to average: 10
Electric dark correction enabled: true
Nonlinearity correction enabled: false
Boxcar width: 0
XAxis mode: Raman Shifts
Number of Pixels in Spectrum: 1044
>>>>>Begin Spectral Data<<<<<
46.04893	-0.175
50.45542	0.325
54.85868	-2.675
59.25871	-1.975
63.6555	79.225
68.04907	84.225
72.43941	89.925
76.82654	87.825
81.21044	95.325
85.59113	93.325
89.96862	98.125
94.34289	104.025
98.71396	107.125
103.08183	108.025
107.4465	115.325
111.80798	113.725
116.16626	117.325
120.52136	122.225
124.87327	131.025
129.222	137.525
133.56755	140.725
137.90993	153.925
142.24913	165.225
146.58517	191.925
150.91804	224.825
155.24774	265.225
159.57429	332.425
163.89768	425.425
168.21792	561.025
172.53501	765.425
176.84895	1063.325
181.15975	1505.825
185.46741	2110.425
189.77193	2913.925
194.07331	3905.725
198.37157	5026.425
202.6667	6201.025
206.9587	7379.025
211.24758	8544.325
215.53334	9740.825
219.81599	11006.325
224.09553	12394.325
228.37195	13977.625
232.64527	15699.025
236.91549	17484.125
241.18261	19217.525
245.44663	20785.825
249.70755	22139.025
253.96539	23312.625
258.22014	24371.925
262.4718	25274.225
266.72039	25938.625
270.96589	26292.725
275.20832	26398.425
279.44768	26246.625
283.68397	26011.225
287.91719	25806.225
292.14735	25779.625
296.37445	25912.525
300.59849	26171.425
304.81948	26467.925
309.03742	26602.625
313.25231	26342.025
317.46415	25546.425
321.67296	24410.625
325.87872	23518.025
330.08145	23120.225
334.28114	23125.925
338.47781	23399.025
342.67145	23763.725
346.86207	24358.125
351.04966	25126.725
355.23424	25987.025
359.4158	26756.725
363.59435	27164.525
367.76989	27450.225
371.94243	27518.625
376.11196	27586.025
380.27849	27626.325
384.44203	27684.825
388.60257	27689.625
392.76012	27816.325
396.91468	28157.525
401.06626	28710.725
405.21485	29174.125
409.36047	29008.625
413.50311	28334.925
417.64277	27785.025
421.77947	27559.225
425.9132	27567.525
430.04396	27719.225
434.17176	27915.325
438.2966	28234.225
442.41849	28830.925
446.53742	29699.025
450.6534	30663.025
454.76644	31468.225
458.87653	31648.725
462.98368	31447.725
467.08789	30955.325
471.18916	30267.425
475.2875	29614.625
479.38291	29198.425
483.4754	28903.425
487.56496	28632.525
491.6516	28157.425
495.73531	27775.425
499.81612	27579.525
503.89401	27711.325
507.96899	27811.725
512.04106	27837.325
516.11023	27789.925
520.1765	27728.425
524.23987	27600.525
528.30034	27302.525
532.35792	26868.925
536.41261	26422.425
540.46441	26022.725
544.51333	25948.425
548.55936	26277.125
552.60252	26846.425
556.64279	27516.325
560.6802	27916.625
564.71473	28176.225
568.7464	28831.425
572.7752	29563.625
576.80114	29819.825
580.82422	29894.425
584.84444	30196.325
588.86181	30504.325
592.87633	31054.625
596.888	31413.625
600.89682	31753.625
604.9028	33257.825
608.90594	37838.325
612.90624	43152.825
616.90371	40781.625
620.89834	32375.725
624.89015	28714.525
628.87913	28222.225
632.86528	28121.325
636.84862	27766.525
640.82913	27121.425
644.80683	26175.125
648.78172	25493.525
652.75379	25403.825
656.72306	25950.725
660.68952	26742.625
664.65319	26656.225
668.61405	25968.725
672.57211	25631.125
676.52738	25621.725
680.47986	25582.725
684.42955	25500.025
688.37646	25444.925
692.32058	25653.825
696.26192	25927.025
700.20048	26307.425
704.13626	26475.825
708.06928	26297.225
711.99952	25997.725
715.927	25919.225
719.85171	25940.725
723.77365	25806.425
727.69284	25539.825
731.60928	25235.925
735.52295	25202.625
739.43388	25316.825
743.34206	25433.025
747.24749	25616.925
751.15017	25856.925
755.05012	26339.325
758.94733	27280.125
762.8418	29183.425
766.73354	32097.025
770.62254	35014.925
774.50882	36044.825
778.39237	34202.325
782.27321	31037.925
786.15132	28276.125
790.02671	26655.325
793.89938	25870.425
797.76935	25605.225
801.6366	25500.125
805.50115	25415.225
809.36299	25232.225
813.22213	25042.525
817.07857	24966.425
820.93231	24941.425
824.78336	24902.325
828.63172	24916.425
832.47738	25013.125
836.32036	25064.725
840.16066	25215.525
843.99827	25341.025
847.8332	25269.625
851.66546	25078.725
855.49504	24978.725
859.32195	24889.625
863.1462	24780.925
866.96777	24584.125
870.78668	24472.025
874.60293	24452.225
878.41652	24490.525
882.22745	24565.825
886.03573	24676.725
889.84136	24675.725
893.64433	24512.325
897.44466	24412.725
901.24235	24396.525
905.0374	24293.625
908.8298	24240.825
912.61957	24289.925
916.40671	24491.425
920.19121	24889.925
923.97308	25318.725
927.75233	25642.525
931.52895	25707.825
935.30295	25326.125
939.07433	24693.125
942.84309	24223.525
946.60924	24022.025
950.37278	23911.725
954.13371	23783.225
957.89203	23562.425
961.64774	23388.025
965.40086	23310.625
969.15137	23263.525
972.89929	23133.725
976.64461	23080.625
980.38733	23149.025
984.12747	23318.325
987.86502	23639.625
991.59999	24119.625
995.33237	24873.125
999.06217	26056.525
1002.78939	27404.525
1006.51404	28144.325
1010.23611	28503.025
1013.95561	28752.825
1017.67255	28637.725
1021.38692	28206.525
1025.09872	27970.525
1028.80796	28550.625
1032.51465	30015.725
1036.21877	31273.225
1039.92035	31420.025
1043.61937	30704.125
1047.31584	29360.225
1051.00976	27928.425
1054.70114	27041.125
1058.38998	26784.725
1062.07627	26751.425
1065.76003	26816.325
1069.44126	26855.225
1073.11995	27150.125
1076.79611	27508.025
1080.46974	27778.425
1084.14085	28176.825
1087.80943	28593.825
1091.47549	28816.725
1095.13903	28522.025
1098.80005	27942.925
1102.45857	27306.825
1106.11456	26914.525
1109.76805	26967.925
1113.41903	27193.325
1117.06751	27523.425
1120.71348	28000.425
1124.35696	28497.325
1127.99793	28958.225
1131.63641	29096.825
1135.2724	28631.625
1138.90589	28179.425
1142.5369	27857.225
1146.16542	27609.725
1149.79145	27638.125
1153.415	27767.225
1157.03607	28101.925
1160.65467	28762.825
1164.27079	29845.425
1167.88443	31604.525
1171.49561	34027.325
1175.10432	37404.925
1178.71056	41722.325
1182.31434	45641.725
1185.91565	47756.525
1189.51451	47659.225
1193.11091	45580.525
1196.70485	42672.525
1200.29634	40116.425
1203.88538	38189.725
1207.47197	36580.725
1211.05612	35392.625
1214.63782	34683.125
1218.21708	34567.925
1221.79391	34797.025
1225.36829	35024.825
1228.94024	34860.025
1232.50976	34187.925
1236.07685	33640.325
1239.6415	33303.225
1243.20374	33168.825
1246.76355	33265.725
1250.32093	33776.425
1253.8759	34759.925
1257.42845	36022.525
1260.97859	37235.925
1264.52631	38365.425
1268.07163	39464.825
1271.61453	40858.025
1275.15503	42422.725
1278.69312	43880.525
1282.22882	45124.225
1285.76211	46052.425
1289.29301	46901.525
1292.82151	48117.525
1296.34761	49780.025
1299.87133	52311.025
1303.39266	56037.925
1306.9116	60836.925
1310.42815	65903.525
1313.94233	69270.025
1317.45412	69266.125
1320.96354	66875.025
1324.47058	64008.225
1327.97525	61415.725
1331.47754	59683.425
1334.97747	59044.125
1338.47502	59160.825
1341.97022	59358.025
1345.46305	59067.925
1348.95352	58439.425
1352.44163	58319.525
1355.92738	59863.025
1359.41078	63925.525
1362.89183	67909.125
1366.37053	66604.325
1369.84688	59665.625
1373.32088	52108.125
1376.79254	47087.025
1380.26186	44803.825
1383.72883	43967.725
1387.19347	43353.625
1390.65578	42800.325
1394.11575	42612.325
1397.57339	43173.425
1401.0287	44228.425
1404.48168	45403.625
1407.93234	46304.225
1411.38068	46457.425
1414.82669	45799.025
1418.27039	44261.725
1421.71177	42434.125
1425.15083	40841.425
1428.58758	39910.925
1432.02203	39809.925
1435.45416	40401.225
1438.88399	41034.725
1442.31151	41661.425
1445.73673	42182.725
1449.15965	42728.825
1452.58027	42994.625
1455.9986	43103.325
1459.41463	43284.425
1462.82837	43916.625
1466.23982	44812.925
1469.64898	45803.025
1473.05586	46349.125
1476.46045	46519.625
1479.86276	46498.125
1483.26279	46412.025
1486.66054	46641.125
1490.05602	47118.825
1493.44922	47669.625
1496.84016	48344.525
1500.22882	49321.525
1503.61521	51024.725
1506.99934	53507.625
1510.38121	56022.825
1513.76081	57252.725
1517.13816	55712.625
1520.51324	52389.725
1523.88607	48959.225
1527.25665	46636.725
1530.62498	45243.625
1533.99105	44426.925
1537.35488	43917.225
1540.71647	43546.425
1544.07581	43147.625
1547.4329	42657.825
1550.78776	42077.525
1554.14038	41785.325
1557.49077	41632.925
1560.83892	41670.125
1564.18484	41700.025
1567.52853	41666.625
1570.86999	41672.225
1574.20922	41935.325
1577.54624	42052.125
1580.88103	41823.225
1584.2136	41666.725
1587.54395	42650.225
1590.87208	45154.125
1594.19801	48714.525
1597.52172	52586.525
1600.84321	54036.325
1604.16251	51684.225
1607.47959	47323.125
1610.79447	42593.925
1614.10715	38350.025
1617.41763	35058.725
1620.7259	33005.725
1624.03199	32035.825
1627.33587	32169.225
1630.63757	33364.625
1633.93707	35699.625
1637.23439	39080.425
1640.52951	43370.025
1643.82246	47842.325
1647.11321	51284.925
1650.40179	51982.925
1653.68819	48651.625
1656.97241	42300.625
1660.25446	35880.325
1663.53433	31182.325
1666.81203	28231.625
1670.08756	26424.325
1673.36092	25316.225
1676.63211	24526.325
1679.90115	24053.525
1683.16801	23658.925
1686.43272	23405.025
1689.69527	23174.925
1692.95567	23018.025
1696.2139	22954.225
1699.46999	22878.225
1702.72392	22793.125
1705.97571	22759.625
1709.22535	22699.525
1712.47284	22670.525
1715.71819	22638.425
1718.96139	22582.725
1722.20246	22490.025
1725.44139	22390.025
1728.67818	22255.725
1731.91284	22091.125
1735.14537	21988.625
1738.37576	21877.325
1741.60403	21838.625
1744.83017	21762.625
1748.05418	21686.725
1751.27607	21651.825
1754.49584	21634.925
1757.71349	21589.225
1760.92903	21571.325
1764.14244	21555.425
1767.35375	21583.425
1770.56294	21500.425
1773.77002	21496.325
1776.97499	21442.925
1780.17785	21386.625
1783.37861	21360.525
1786.57727	21367.125
1789.77382	21349.825
1792.96828	21272.925
1796.16064	21247.825
1799.3509	21232.625
1802.53907	21225.325
1805.72514	21142.825
1808.90913	21120.425
1812.09102	21065.125
1815.27083	21003.325
1818.44856	20974.325
1821.6242	20963.425
1824.79776	20950.725
1827.96924	20921.525
1831.13864	20926.625
1834.30597	20963.925
1837.47122	20941.925
1840.6344	20951.925
1843.7955	20980.225
1846.95454	20946.025
1850.11151	20939.925
1853.26642	20952.125
1856.41926	20998.725
1859.57004	21023.625
1862.71876	21076.225
1865.86542	21022.525
1869.01003	21037.225
1872.15258	21052.225
1875.29308	21085.025
1878.43152	21076.925
1881.56792	21092.925
1884.70227	21128.625
1887.83457	21137.225
1890.96482	21124.025
1894.09304	21084.025
1897.21921	21160.825
1900.34335	21143.825
1903.46544	21099.025
1906.58551	21114.325
1909.70353	21140.125
1912.81953	21131.325
1915.93349	21085.025
1919.04543	21050.325
1922.15534	21004.625
1925.26322	20906.225
1928.36908	20866.025
1931.47292	20841.425
1934.57473	20702.525
1937.67453	20668.825
1940.77232	20578.225
1943.86808	20442.125
1946.96184	20316.125
1950.05358	20265.925
1953.14331	20180.925
1956.23103	20125.325
1959.31675	20050.325
1962.40046	19943.825
1965.48217	19916.225
1968.56188	19860.425
1971.63959	19775.725
1974.7153	19728.525
1977.78901	19676.825
1980.86073	19583.725
1983.93046	19540.625
1986.99819	19501.225
1990.06394	19548.525
1993.1277	19366.625
1996.18947	19328.825
1999.24925	19290.025
2002.30706	19175.225
2005.36288	19140.325
2008.41672	19104.925
2011.46859	19018.125
2014.51848	18981.225
2017.56639	18959.825
2020.61233	18930.125
2023.6563	18884.525
2026.6983	18864.325
2029.73833	18828.025
2032.7764	18820.425
2035.8125	18727.425
2038.84664	18736.725
2041.87881	18726.625
2044.90903	18689.825
2047.93729	18686.925
2050.96359	18631.325
2053.98794	18629.225
2057.01034	18620.825
2060.03078	18572.725
2063.04927	18544.225
2066.06582	18559.325
2069.08042	18510.225
2072.09307	18481.525
2075.10378	18474.925
2078.11255	18458.925
2081.11938	18467.125
2084.12426	18484.625
2087.12722	18413.325
2090.12824	18395.825
2093.12732	18390.025
2096.12447	18351.225
2099.11969	18324.625
2102.11299	18381.125
2105.10435	18386.725
2108.09379	18404.225
2111.08131	18389.425
2114.0669	18385.725
2117.05057	18404.425
2120.03233	18427.525
2123.01216	18438.525
2125.99008	18469.725
2128.96609	18474.125
2131.94018	18482.925
2134.91236	18511.625
2137.88263	18540.525
2140.851	18502.625
2143.81746	18517.825
2146.78201	18507.125
2149.74466	18522.825
2152.7054	18533.125
2155.66425	18512.125
2158.6212	18503.625
2161.57625	18485.525
2164.52941	18518.425
2167.48067	18475.725
2170.43004	18474.325
2173.37752	18466.125
2176.32311	18478.725
2179.26681	18525.025
2182.20863	18497.225
2185.14856	18524.525
2188.08661	18487.825
2191.02278	18525.925
2193.95707	18558.525
2196.88948	18524.025
2199.82001	18545.825
2202.74867	18536.325
2205.67545	18541.225
2208.60037	18553.525
2211.52341	18514.825
2214.44458	18543.125
2217.36388	18524.825
2220.28132	18505.125
2223.1969	18452.125
2226.11061	18421.225
2229.02246	18399.725
2231.93245	18363.925
2234.84058	18325.425
2237.74686	18282.125
2240.65128	18246.625
2243.55385	18187.925
2246.45456	18185.825
2249.35343	18176.725
2252.25044	18134.725
2255.14561	18128.025
2258.03893	18098.125
2260.93041	18078.525
2263.82004	18025.725
2266.70783	18005.425
2269.59378	17954.025
2272.4779	17902.325
2275.36017	17861.525
2278.24061	17818.025
2281.11922	17823.325
2283.996	17806.725
2286.87094	17767.725
2289.74405	17749.125
2292.61534	17736.525
2295.4848	17766.825
2298.35243	17807.625
2301.21824	17801.125
2304.08223	17804.325
2306.94439	17809.925
2309.80474	17827.925
2312.66327	17889.525
2315.51999	17891.125
2318.37489	17927.225
2321.22797	17923.625
2324.07925	17909.925
2326.92871	17849.925
2329.77637	17912.325
2332.62222	17833.325
2335.46626	17893.225
2338.3085	17891.225
2341.14893	17895.225
2343.98756	17953.625
2346.8244	17950.425
2349.65943	18000.425
2352.49267	17935.925
2355.32411	17988.025
2358.15376	17941.825
2360.98161	17963.225
2363.80768	17908.425
2366.63195	17904.225
2369.45444	17839.825
2372.27514	17779.925
2375.09405	17786.225
2377.91118	17691.625
2380.72652	17604.125
2383.54009	17605.725
2386.35187	17554.425
2389.16188	17528.525
2391.97011	17510.825
2394.77657	17479.625
2397.58125	17432.725
2400.38416	17411.925
2403.18529	17378.325
2405.98466	17333.025
2408.78226	17274.025
2411.57809	17264.125
2414.37216	17221.625
2417.16446	17200.625
2419.955	17158.825
2422.74378	17136.125
2425.5308	17130.925
2428.31606	17152.025
2431.09956	17125.925
2433.88131	17166.825
2436.6613	17162.825
2439.43954	17169.625
2442.21603	17151.825
2444.99077	17122.525
2447.76377	17126.425
2450.53501	17136.125
2453.30451	17081.125
2456.07226	17102.925
2458.83827	17115.225
2461.60254	17117.825
2464.36507	17134.225
2467.12586	17104.025
2469.88492	17100.225
2472.64224	17150.925
2475.39782	17169.925
2478.15167	17164.925
2480.90379	17188.625
2483.65417	17209.825
2486.40283	17254.925
2489.14976	17238.425
2491.89497	17276.825
2494.63845	17319.025
2497.3802	17286.425
2500.12024	17326.525
2502.85855	17294.725
2505.59514	17269.425
2508.33002	17242.525
2511.06318	17179.125
2513.79462	17178.825
2516.52435	17160.925
2519.25237	17119.425
2521.97867	17091.925
2524.70327	17143.925
2527.42616	17098.025
2530.14734	17111.125
2532.86681	17088.725
2535.58458	17136.525
2538.30065	17104.225
2541.01501	17140.025
2543.72768	17136.025
2546.43864	17119.125
2549.14791	17074.225
2551.85548	17112.325
2554.56136	17067.425
2557.26554	17069.125
2559.96803	17014.825
2562.66883	17011.325
2565.36794	16989.325
2568.06536	16954.225
2570.7611	16939.725
2573.45514	16924.225
2576.14751	16991.925
2578.83819	16974.825
2581.52719	16993.225
2584.21451	16977.625
2586.90015	17029.725
2589.58411	17038.125
2592.2664	16990.625
2594.94701	16970.625
2597.62594	17024.525
2600.30321	16988.425
2602.9788	16973.025
2605.65273	16976.825
2608.32498	16963.725
2610.99557	17005.425
2613.66449	17014.025
2616.33175	17006.625
2618.99734	17022.825
2621.66128	17018.425
2624.32355	17046.425
2626.98416	17042.625
2629.64311	17049.525
2632.30041	17019.025
2634.95605	17005.125
2637.61004	16991.725
2640.26238	16939.025
2642.91306	16976.825
2645.56209	16931.925
2648.20948	16904.825
2650.85521	16871.425
2653.4993	16862.225
2656.14175	16855.125
2658.78255	16874.325
2661.42171	16898.025
2664.05923	16927.825
2666.6951	16961.625
2669.32934	16964.125
2671.96194	16961.525
2674.59291	17007.225
2677.22224	16981.125
2679.84993	16977.025
2682.476	16972.725
2685.10043	16947.525
2687.72324	16904.925
2690.34441	16877.625
2692.96396	16859.925
2695.58188	16850.525
2698.19818	16807.625
2700.81285	16828.325
2703.4259	16801.125
2706.03733	16819.025
2708.64714	16820.625
2711.25533	16832.525
2713.86191	16842.625
2716.46687	16855.825
2719.07021	16863.825
2721.67194	16908.025
2724.27206	16892.125
2726.87057	16890.825
2729.46747	16883.625
2732.06276	16926.525
2734.65644	16865.725
2737.24852	16919.925
2739.83899	16881.225
2742.42786	16907.625
2745.01513	16884.925
2747.60079	16848.825
2750.18486	16862.825
2752.76733	16862.525
2755.3482	16884.825
2757.92747	16889.125
2760.50515	16849.725
2763.08123	16851.325
2765.65573	16805.125
2768.22863	16837.125
2770.79994	16821.625
2773.36967	16783.325
2775.9378	16831.925
2778.50435	16822.325
2781.06932	16840.125
2783.6327	16857.425
2786.1945	16830.625
2788.75471	16848.525
2791.31335	16798.325
2793.87041	16791.025
2796.42589	16740.925
2798.97979	16723.225
2801.53212	16708.625
2804.08288	16701.825
2806.63206	16650.825
2809.17967	16621.725
2811.72571	16611.425
2814.27018	16586.925
2816.81308	16566.625
2819.35442	16544.825
2821.89419	16556.525
2824.43239	16539.425
2826.96904	16565.325
2829.50412	16534.225
2832.03763	16508.425
2834.56959	16495.125
2837.1	16469.925
2839.62884	16517.625
2842.15613	16513.025
2844.68186	16512.725
2847.20604	16500.625
2849.72867	16566.325
2852.24974	16534.025
2854.76927	16517.825
2857.28724	16482.425
2859.80367	16456.825
2862.31855	16444.925
2864.83189	16456.025
2867.34368	16431.425
2869.85393	16413.925
2872.36264	16378.625
2874.8698	16402.125
2877.37543	16408.725
2879.87952	16425.025
2882.38207	16429.825
2884.88308	16417.325
2887.38256	16408.225
2889.88051	16402.325
2892.37692	16417.125
2894.8718	16442.025
2897.36515	16450.325
2899.85698	16493.625
2902.34727	16501.025
2904.83604	16508.525
2907.32328	16592.125
2909.809	16571.725
2912.29319	16584.425
2914.77587	16539.425
2917.25702	16550.525
2919.73665	16523.925
2922.21476	16488.025
2924.69136	16487.325
2927.16644	16446.525
2929.64	16412.825
2932.11205	16408.025
2934.58258	16348.925
2937.05161	16395.425
2939.51912	16356.625
2941.98513	16344.225
2944.44962	16300.625
2946.91261	16239.125
2949.37409	16310.025
2951.83407	16258.925
2954.29254	16266.225
2956.74951	16256.925
2959.20498	16214.925
2961.65895	16198.125
2964.11142	16168.425
2966.56239	16163.825
2969.01186	16155.625
2971.45984	16088.225
2973.90632	16063.625
2976.35131	16011.625
2978.7948	15988.625
2981.23681	15941.725
2983.67732	15889.725
2986.11635	15887.225
2988.55388	15836.425
2990.98993	15812.125
2993.4245	15748.125
2995.85758	15731.025
2998.28917	15718.625
3000.71928	15677.225
3003.14791	15651.625
3005.57506	15604.225
3008.00073	15600.925
3010.42493	15457.025
3012.84764	15506.025
3015.26888	15479.925
3017.68865	15428.825
3020.10694	15400.725
3022.52376	15380.525
3024.9391	15364.425
3027.35298	15354.525
3029.76539	15356.525
3032.17632	15319.125
3034.5858	15290.225
3036.9938	15288.725
3039.40034	15306.125
3041.80542	15270.425
3044.20903	15241.725
3046.61118	15258.125
3049.01187	15207.325
3051.4111	15182.725
3053.80888	15160.425
3056.20519	15126.725
3058.60005	15070.725
3060.99345	15045.125
3063.3854	15010.225
3065.7759	14916.825
3068.16494	14927.925
3070.55254	14871.625
3072.93868	14829.525
3075.32338	14845.425
3077.70662	14786.225
3080.08842	14760.625
3082.46878	14707.625
3084.84769	14684.225
3087.22515	14691.225
3089.60118	14660.425
3091.97576	14673.625
3094.3489	14636.925
3096.72061	14674.525
3099.09087	14645.225
3101.4597	14627.025
3103.82709	14608.625
3106.19305	14625.225
3108.55757	14588.825
3110.92066	14574.925
3113.28232	14545.825
3115.64255	14505.025
3118.00134	14471.925
3120.35871	14451.225
3122.71466	14449.225
3125.06917	14367.425
3127.42226	14349.425
3129.77393	14370.725
3132.12417	14321.725
3134.47299	14333.325
3136.82039	14315.325
3139.16636	14346.325
3141.51092	14329.425
3143.85406	14324.025
3146.19579	14300.225
3148.53609	14281.525
3150.87499	14303.425
3153.21246	14290.525
3155.54853	14337.525
3157.88318	14305.825
3160.21642	14317.725
3162.54826	14280.725
3164.87868	14320.025
3167.2077	14339.925
3169.5353	14326.725
3171.86151	14291.625
3174.18631	14279.725
3176.5097	14275.225
3178.83169	14247.425
3181.15228	14246.825
3183.47147	14227.625
3185.78926	14229.725
3188.10565	14234.225
3190.42065	14219.925
3192.73424	14208.325
3195.04645	14179.225
3197.35725	14161.525
3199.66667	14150.325
3201.97469	14194.725
3204.28132	14190.525
3206.58656	14196.925
3208.8904	14201.825
3211.19287	14184.625
3213.49394	14192.125
3215.79363	14205.925
3218.09193	14212.125
3220.38884	14187.725
3222.68438	14214.025
3224.97853	14210.925
3227.2713	14227.125
3229.56269	14210.025
3231.8527	14177.625
3234.14133	14154.925
3236.42858	14115.325
3238.71446	14125.925
3240.99896	14064.725
3243.28209	14040.525
3245.56384	14008.925
3247.84423	14038.425
3250.12324	14011.725
3252.40088	14012.125
3254.67715	13973.425
3256.95205	13989.725
3259.22558	13978.025
3261.49775	13948.625
3263.76855	13947.425
3266.03799	13917.225
3268.30606	13904.725
3270.57277	13900.625
3272.83812	13851.125
3275.10211	13819.325
3277.36474	13840.725
3279.62601	13819.725
3281.88593	13812.025
3284.14448	13813.325
3286.40168	13806.125
3288.65753	13820.525
3290.91202	13797.225
3293.16516	13756.725
3295.41695	13733.425
3297.66738	13659.725
3299.91647	13599.725
3302.16421	13528.125
3304.4106	13446.625
3306.65564	13404.425
3308.89933	13307.825
3311.14169	13220.525
3313.38269	13095.025
3315.62236	13029.625
3317.86068	12919.525
3320.09766	12824.425
3322.3333	12711.825
3324.5676	12655.225
3326.80056	12451.925
3329.03219	12370.825
3331.26248	5.725
3333.49143	-0.675
3335.71905	-0.475
