Data from AgNP_FTO_APTES_UA_10uM_CRN_0uM_R6G_10uM_NaF_0.1M_Addition_RamanShift__13__12-23-30-451.txt Node

Date: Thu Feb 10 12:23:30 GMT 2022
User: TCL
Spectrometer: QEP01345
Trigger mode: 4
Integration Time (sec): 7.000000E0
Scans to average: 10
Electric dark correction enabled: true
Nonlinearity correction enabled: false
Boxcar width: 0
XAxis mode: Raman Shifts
Number of Pixels in Spectrum: 1044
>>>>>Begin Spectral Data<<<<<
46.04893	0.025
50.45542	-0.275
54.85868	-1.775
59.25871	0.225
63.6555	58.425
68.04907	58.425
72.43941	63.325
76.82654	59.725
81.21044	65.225
85.59113	64.025
89.96862	69.325
94.34289	77.625
98.71396	72.825
103.08183	78.325
107.4465	81.325
111.80798	79.925
116.16626	85.325
120.52136	90.325
124.87327	93.425
129.222	95.525
133.56755	106.125
137.90993	110.425
142.24913	116.925
146.58517	132.925
150.91804	158.025
155.24774	191.525
159.57429	237.425
163.89768	303.625
168.21792	396.025
172.53501	547.425
176.84895	764.825
181.15975	1081.625
185.46741	1516.125
189.77193	2115.925
194.07331	2837.325
198.37157	3676.825
202.6667	4540.925
206.9587	5417.125
211.24758	6290.825
215.53334	7142.525
219.81599	8049.925
224.09553	9036.625
228.37195	10148.025
232.64527	11367.625
236.91549	12663.925
241.18261	13971.425
245.44663	15234.925
249.70755	16339.825
253.96539	17293.225
258.22014	18123.025
262.4718	18756.125
266.72039	19144.425
270.96589	19287.625
275.20832	19245.425
279.44768	19037.925
283.68397	18697.225
287.91719	18467.925
292.14735	18257.425
296.37445	18142.625
300.59849	18073.825
304.81948	18110.925
309.03742	18120.925
313.25231	18057.025
317.46415	17770.125
321.67296	17395.825
325.87872	17063.525
330.08145	16929.725
334.28114	16904.025
338.47781	16993.625
342.67145	17223.925
346.86207	17480.625
351.04966	17854.525
355.23424	18188.525
359.4158	18537.625
363.59435	18776.025
367.76989	18929.225
371.94243	19008.825
376.11196	18965.425
380.27849	19010.625
384.44203	19103.325
388.60257	19149.725
392.76012	19315.425
396.91468	19574.625
401.06626	19885.925
405.21485	20063.025
409.36047	19951.825
413.50311	19643.025
417.64277	19360.225
421.77947	19379.525
425.9132	19433.925
430.04396	19589.725
434.17176	19649.125
438.2966	19710.725
442.41849	19884.325
446.53742	20149.825
450.6534	20440.025
454.76644	20636.825
458.87653	20700.025
462.98368	20682.525
467.08789	20561.625
471.18916	20448.625
475.2875	20212.225
479.38291	20055.125
483.4754	19972.125
487.56496	19908.425
491.6516	19798.125
495.73531	19720.425
499.81612	19605.725
503.89401	19672.525
507.96899	19773.725
512.04106	19838.825
516.11023	19881.725
520.1765	19812.425
524.23987	19662.725
528.30034	19572.225
532.35792	19447.725
536.41261	19285.325
540.46441	19118.125
544.51333	19073.125
548.55936	19238.425
552.60252	19530.125
556.64279	19845.325
560.6802	20063.025
564.71473	20177.525
568.7464	20426.925
572.7752	20811.325
576.80114	21209.625
580.82422	21715.925
584.84444	22178.025
588.86181	22741.225
592.87633	23299.725
596.888	23444.525
600.89682	22937.225
604.9028	22867.125
608.90594	24395.225
612.90624	26371.725
616.90371	25286.225
620.89834	21805.425
624.89015	20097.425
628.87913	19850.825
632.86528	19994.525
636.84862	20069.225
640.82913	19843.225
644.80683	19304.725
648.78172	19002.925
652.75379	18936.825
656.72306	19123.725
660.68952	19436.925
664.65319	19407.425
668.61405	19105.425
672.57211	18975.925
676.52738	19031.025
680.47986	19016.025
684.42955	18885.825
688.37646	18826.025
692.32058	18863.925
696.26192	19048.525
700.20048	19163.425
704.13626	19360.825
708.06928	19422.725
711.99952	19369.025
715.927	19299.325
719.85171	19274.925
723.77365	19165.425
727.69284	18982.925
731.60928	18775.925
735.52295	18709.425
739.43388	18667.625
743.34206	18730.725
747.24749	18815.025
751.15017	18924.925
755.05012	19152.225
758.94733	19598.025
762.8418	20379.525
766.73354	21662.525
770.62254	22966.725
774.50882	23250.425
778.39237	22563.325
782.27321	21371.125
786.15132	20317.825
790.02671	19573.725
793.89938	19097.125
797.76935	18863.825
801.6366	18738.625
805.50115	18675.025
809.36299	18586.825
813.22213	18503.725
817.07857	18403.725
820.93231	18382.725
824.78336	18388.525
828.63172	18374.225
832.47738	18353.225
836.32036	18311.025
840.16066	18289.325
843.99827	18270.425
847.8332	18265.825
851.66546	18299.825
855.49504	18338.025
859.32195	18375.725
863.1462	18332.125
866.96777	18298.725
870.78668	18302.425
874.60293	18316.425
878.41652	18373.725
882.22745	18434.025
886.03573	18507.525
889.84136	18564.925
893.64433	18562.325
897.44466	18587.625
901.24235	18644.025
905.0374	18612.725
908.8298	18621.125
912.61957	18601.825
916.40671	18714.225
920.19121	18851.225
923.97308	18999.325
927.75233	19061.325
931.52895	19016.525
935.30295	18748.425
939.07433	18410.325
942.84309	18153.625
946.60924	17951.125
950.37278	17896.625
954.13371	17858.725
957.89203	17810.725
961.64774	17805.525
965.40086	17707.525
969.15137	17659.225
972.89929	17586.925
976.64461	17506.425
980.38733	17512.925
984.12747	17499.225
987.86502	17504.125
991.59999	17605.025
995.33237	17647.025
999.06217	17848.825
1002.78939	18030.525
1006.51404	18351.525
1010.23611	18640.825
1013.95561	18823.625
1017.67255	18864.725
1021.38692	18769.125
1025.09872	18520.825
1028.80796	18292.925
1032.51465	18182.525
1036.21877	18146.825
1039.92035	18198.625
1043.61937	18253.025
1047.31584	18311.525
1051.00976	18378.725
1054.70114	18442.925
1058.38998	18476.125
1062.07627	18583.425
1065.76003	18713.525
1069.44126	18904.225
1073.11995	19175.825
1076.79611	19485.925
1080.46974	19682.225
1084.14085	19746.425
1087.80943	19895.925
1091.47549	20051.825
1095.13903	20092.125
1098.80005	19921.225
1102.45857	19530.625
1106.11456	19225.425
1109.76805	18994.925
1113.41903	18929.625
1117.06751	18984.625
1120.71348	19132.225
1124.35696	19342.425
1127.99793	19599.225
1131.63641	19719.225
1135.2724	19625.825
1138.90589	19477.125
1142.5369	19418.325
1146.16542	19347.825
1149.79145	19369.525
1153.415	19441.625
1157.03607	19568.625
1160.65467	19887.725
1164.27079	20500.925
1167.88443	21283.725
1171.49561	22299.325
1175.10432	23665.125
1178.71056	25211.225
1182.31434	26729.825
1185.91565	27592.225
1189.51451	27865.725
1193.11091	27453.425
1196.70485	26527.325
1200.29634	25328.625
1203.88538	24308.825
1207.47197	23649.425
1211.05612	23144.325
1214.63782	22671.025
1218.21708	22248.725
1221.79391	21847.425
1225.36829	21582.625
1228.94024	21474.425
1232.50976	21380.625
1236.07685	21384.825
1239.6415	21287.625
1243.20374	21227.925
1246.76355	21213.725
1250.32093	21326.725
1253.8759	21568.125
1257.42845	22035.725
1260.97859	22672.625
1264.52631	23272.325
1268.07163	23879.625
1271.61453	24452.225
1275.15503	24948.325
1278.69312	25467.625
1282.22882	25977.225
1285.76211	26577.325
1289.29301	27198.825
1292.82151	27924.825
1296.34761	28725.925
1299.87133	29751.525
1303.39266	30957.725
1306.9116	32233.725
1310.42815	33413.225
1313.94233	34116.825
1317.45412	34088.825
1320.96354	33619.125
1324.47058	33216.525
1327.97525	32917.525
1331.47754	32711.625
1334.97747	32491.825
1338.47502	32490.425
1341.97022	32553.725
1345.46305	32695.625
1348.95352	32976.725
1352.44163	33192.125
1355.92738	33518.425
1359.41078	34253.725
1362.89183	34997.725
1366.37053	34602.425
1369.84688	32240.925
1373.32088	29234.225
1376.79254	27027.325
1380.26186	25948.925
1383.72883	25401.325
1387.19347	24964.725
1390.65578	24498.825
1394.11575	24322.325
1397.57339	24293.825
1401.0287	24408.725
1404.48168	24510.925
1407.93234	24376.625
1411.38068	24038.225
1414.82669	23604.425
1418.27039	23110.825
1421.71177	22588.825
1425.15083	22153.725
1428.58758	21955.825
1432.02203	21992.825
1435.45416	22283.725
1438.88399	22578.825
1442.31151	22796.225
1445.73673	22982.525
1449.15965	23229.025
1452.58027	23331.225
1455.9986	23474.425
1459.41463	23685.425
1462.82837	24064.825
1466.23982	24405.125
1469.64898	24702.725
1473.05586	24846.225
1476.46045	24901.225
1479.86276	24947.225
1483.26279	24958.625
1486.66054	25139.625
1490.05602	25495.225
1493.44922	26108.525
1496.84016	27005.125
1500.22882	28128.325
1503.61521	29398.425
1506.99934	30616.325
1510.38121	31521.325
1513.76081	31558.525
1517.13816	30649.925
1520.51324	29269.725
1523.88607	28010.825
1527.25665	27106.225
1530.62498	26533.425
1533.99105	26016.125
1537.35488	25528.125
1540.71647	24983.425
1544.07581	24380.225
1547.4329	23860.725
1550.78776	23495.125
1554.14038	23282.925
1557.49077	23298.525
1560.83892	23421.825
1564.18484	23665.625
1567.52853	23884.125
1570.86999	24063.625
1574.20922	24352.225
1577.54624	24488.325
1580.88103	24320.725
1584.2136	24079.225
1587.54395	24128.525
1590.87208	24626.925
1594.19801	25510.725
1597.52172	26380.425
1600.84321	26550.425
1604.16251	25738.225
1607.47959	24459.125
1610.79447	23069.025
1614.10715	21683.125
1617.41763	20439.525
1620.7259	19576.425
1624.03199	19133.225
1627.33587	19081.825
1630.63757	19502.725
1633.93707	20440.325
1637.23439	22052.525
1640.52951	24378.425
1643.82246	27199.325
1647.11321	29462.325
1650.40179	30165.925
1653.68819	28661.925
1656.97241	25539.725
1660.25446	22316.025
1663.53433	19846.225
1666.81203	18270.025
1670.08756	17324.425
1673.36092	16744.825
1676.63211	16408.825
1679.90115	16107.025
1683.16801	15922.925
1686.43272	15762.625
1689.69527	15630.025
1692.95567	15557.125
1696.2139	15464.525
1699.46999	15408.125
1702.72392	15355.725
1705.97571	15359.025
1709.22535	15336.025
1712.47284	15282.225
1715.71819	15289.925
1718.96139	15234.225
1722.20246	15173.025
1725.44139	15119.025
1728.67818	15025.425
1731.91284	14971.425
1735.14537	14845.825
1738.37576	14819.325
1741.60403	14758.225
1744.83017	14732.925
1748.05418	14675.925
1751.27607	14618.125
1754.49584	14610.525
1757.71349	14573.625
1760.92903	14544.725
1764.14244	14557.325
1767.35375	14550.325
1770.56294	14522.725
1773.77002	14474.725
1776.97499	14477.025
1780.17785	14422.125
1783.37861	14442.025
1786.57727	14392.425
1789.77382	14338.325
1792.96828	14318.625
1796.16064	14308.425
1799.3509	14260.025
1802.53907	14229.125
1805.72514	14182.925
1808.90913	14123.125
1812.09102	14121.425
1815.27083	14121.225
1818.44856	14110.225
1821.6242	14035.925
1824.79776	14049.825
1827.96924	14034.125
1831.13864	14074.325
1834.30597	14062.125
1837.47122	14057.925
1840.6344	14085.025
1843.7955	14087.725
1846.95454	14060.125
1850.11151	14055.925
1853.26642	14080.725
1856.41926	14119.925
1859.57004	14083.125
1862.71876	14101.025
1865.86542	14073.925
1869.01003	14041.325
1872.15258	13995.825
1875.29308	13961.025
1878.43152	13916.425
1881.56792	13903.225
1884.70227	13869.225
1887.83457	13836.925
1890.96482	13779.125
1894.09304	13727.125
1897.21921	13723.125
1900.34335	13705.825
1903.46544	13633.425
1906.58551	13625.025
1909.70353	13602.225
1912.81953	13587.525
1915.93349	13541.225
1919.04543	13502.725
1922.15534	13469.625
1925.26322	13407.425
1928.36908	13404.525
1931.47292	13358.125
1934.57473	13319.425
1937.67453	13240.525
1940.77232	13222.025
1943.86808	13165.525
1946.96184	13105.825
1950.05358	13060.125
1953.14331	13027.825
1956.23103	12999.025
1959.31675	12953.725
1962.40046	12911.225
1965.48217	12853.625
1968.56188	12788.225
1971.63959	12741.725
1974.7153	12717.125
1977.78901	12665.025
1980.86073	12592.325
1983.93046	12542.425
1986.99819	12523.325
1990.06394	12507.125
1993.1277	12471.725
1996.18947	12394.825
1999.24925	12374.925
2002.30706	12301.525
2005.36288	12286.725
2008.41672	12250.925
2011.46859	12229.425
2014.51848	12187.225
2017.56639	12138.925
2020.61233	12082.425
2023.6563	12081.625
2026.6983	12026.925
2029.73833	11997.625
2032.7764	11943.625
2035.8125	11946.425
2038.84664	11930.225
2041.87881	11893.125
2044.90903	11847.625
2047.93729	11835.925
2050.96359	11809.825
2053.98794	11789.425
2057.01034	11771.225
2060.03078	11760.325
2063.04927	11766.225
2066.06582	11753.225
2069.08042	11761.725
2072.09307	11755.825
2075.10378	11743.725
2078.11255	11733.725
2081.11938	11726.925
2084.12426	11675.825
2087.12722	11729.425
2090.12824	11711.225
2093.12732	11694.525
2096.12447	11702.725
2099.11969	11689.625
2102.11299	11688.325
2105.10435	11688.725
2108.09379	11645.025
2111.08131	11686.825
2114.0669	11674.425
2117.05057	11683.325
2120.03233	11700.325
2123.01216	11684.625
2125.99008	11682.025
2128.96609	11681.825
2131.94018	11698.325
2134.91236	11693.425
2137.88263	11672.325
2140.851	11683.525
2143.81746	11709.125
2146.78201	11656.425
2149.74466	11647.525
2152.7054	11640.925
2155.66425	11615.725
2158.6212	11640.025
2161.57625	11606.725
2164.52941	11597.925
2167.48067	11626.625
2170.43004	11609.925
2173.37752	11602.225
2176.32311	11594.525
2179.26681	11584.825
2182.20863	11573.925
2185.14856	11563.125
2188.08661	11504.125
2191.02278	11554.125
2193.95707	11552.325
2196.88948	11526.925
2199.82001	11515.025
2202.74867	11498.725
2205.67545	11462.125
2208.60037	11438.425
2211.52341	11439.925
2214.44458	11415.625
2217.36388	11394.225
2220.28132	11350.725
2223.1969	11320.225
2226.11061	11296.525
2229.02246	11295.825
2231.93245	11270.525
2234.84058	11234.225
2237.74686	11228.125
2240.65128	11241.525
2243.55385	11175.425
2246.45456	11175.425
2249.35343	11135.825
2252.25044	11123.125
2255.14561	11128.125
2258.03893	11089.825
2260.93041	11083.925
2263.82004	11035.925
2266.70783	11028.225
2269.59378	10975.825
2272.4779	10942.425
2275.36017	10914.825
2278.24061	10894.925
2281.11922	10894.925
2283.996	10873.625
2286.87094	10825.625
2289.74405	10816.225
2292.61534	10766.525
2295.4848	10759.225
2298.35243	10762.525
2301.21824	10748.525
2304.08223	10747.125
2306.94439	10723.525
2309.80474	10703.725
2312.66327	10711.425
2315.51999	10692.925
2318.37489	10658.425
2321.22797	10638.425
2324.07925	10655.125
2326.92871	10613.625
2329.77637	10597.525
2332.62222	10585.325
2335.46626	10557.825
2338.3085	10527.725
2341.14893	10530.425
2343.98756	10517.925
2346.8244	10517.825
2349.65943	10517.925
2352.49267	10496.325
2355.32411	10501.525
2358.15376	10496.325
2360.98161	10514.325
2363.80768	10510.825
2366.63195	10492.325
2369.45444	10470.125
2372.27514	10414.025
2375.09405	10421.125
2377.91118	10424.025
2380.72652	10385.125
2383.54009	10364.225
2386.35187	10346.725
2389.16188	10306.925
2391.97011	10286.525
2394.77657	10232.625
2397.58125	10219.225
2400.38416	10211.625
2403.18529	10211.125
2405.98466	10193.125
2408.78226	10168.125
2411.57809	10121.325
2414.37216	10115.625
2417.16446	10093.225
2419.955	10107.825
2422.74378	10093.525
2425.5308	10087.425
2428.31606	10069.925
2431.09956	10099.625
2433.88131	10097.425
2436.6613	10095.425
2439.43954	10056.525
2442.21603	10021.425
2444.99077	10009.525
2447.76377	10028.425
2450.53501	9985.125
2453.30451	10015.725
2456.07226	9971.225
2458.83827	9999.725
2461.60254	9970.325
2464.36507	9946.925
2467.12586	9917.725
2469.88492	9927.925
2472.64224	9914.925
2475.39782	9926.225
2478.15167	9932.425
2480.90379	9928.625
2483.65417	9924.125
2486.40283	9918.725
2489.14976	9909.925
2491.89497	9894.425
2494.63845	9880.725
2497.3802	9867.725
2500.12024	9863.325
2502.85855	9859.325
2505.59514	9858.925
2508.33002	9831.425
2511.06318	9820.825
2513.79462	9804.925
2516.52435	9793.325
2519.25237	9784.025
2521.97867	9761.825
2524.70327	9756.325
2527.42616	9723.825
2530.14734	9749.825
2532.86681	9732.625
2535.58458	9693.225
2538.30065	9675.425
2541.01501	9685.425
2543.72768	9677.625
2546.43864	9632.325
2549.14791	9633.725
2551.85548	9648.125
2554.56136	9614.125
2557.26554	9595.225
2559.96803	9587.225
2562.66883	9542.925
2565.36794	9525.425
2568.06536	9526.625
2570.7611	9507.325
2573.45514	9474.425
2576.14751	9442.625
2578.83819	9426.925
2581.52719	9433.125
2584.21451	9419.425
2586.90015	9397.525
2589.58411	9382.825
2592.2664	9377.225
2594.94701	9348.025
2597.62594	9345.125
2600.30321	9327.925
2602.9788	9318.425
2605.65273	9321.125
2608.32498	9297.225
2610.99557	9284.225
2613.66449	9270.925
2616.33175	9268.025
2618.99734	9249.025
2621.66128	9230.825
2624.32355	9216.525
2626.98416	9213.625
2629.64311	9191.425
2632.30041	9169.625
2634.95605	9140.025
2637.61004	9151.225
2640.26238	9138.825
2642.91306	9154.825
2645.56209	9122.125
2648.20948	9120.925
2650.85521	9127.425
2653.4993	9134.325
2656.14175	9139.125
2658.78255	9129.525
2661.42171	9109.825
2664.05923	9124.925
2666.6951	9131.925
2669.32934	9145.925
2671.96194	9113.025
2674.59291	9145.825
2677.22224	9128.225
2679.84993	9122.525
2682.476	9120.925
2685.10043	9108.225
2687.72324	9083.925
2690.34441	9090.125
2692.96396	9093.425
2695.58188	9078.125
2698.19818	9065.125
2700.81285	9060.825
2703.4259	9066.925
2706.03733	9058.625
2708.64714	9049.525
2711.25533	9045.725
2713.86191	9036.425
2716.46687	9074.425
2719.07021	9082.225
2721.67194	9098.525
2724.27206	9077.225
2726.87057	9082.125
2729.46747	9082.425
2732.06276	9088.125
2734.65644	9087.325
2737.24852	9072.025
2739.83899	9028.725
2742.42786	9039.225
2745.01513	9022.725
2747.60079	9006.925
2750.18486	8999.725
2752.76733	8989.325
2755.3482	8932.425
2757.92747	8947.525
2760.50515	8946.125
2763.08123	8934.625
2765.65573	8909.225
2768.22863	8896.825
2770.79994	8887.025
2773.36967	8908.825
2775.9378	8880.125
2778.50435	8847.425
2781.06932	8827.725
2783.6327	8836.125
2786.1945	8846.025
2788.75471	8823.325
2791.31335	8816.525
2793.87041	8803.825
2796.42589	8791.925
2798.97979	8762.325
2801.53212	8765.425
2804.08288	8723.125
2806.63206	8728.225
2809.17967	8697.425
2811.72571	8677.525
2814.27018	8656.625
2816.81308	8632.525
2819.35442	8611.525
2821.89419	8597.825
2824.43239	8598.825
2826.96904	8586.625
2829.50412	8566.425
2832.03763	8574.025
2834.56959	8592.525
2837.1	8533.625
2839.62884	8578.725
2842.15613	8550.225
2844.68186	8566.025
2847.20604	8570.925
2849.72867	8547.325
2852.24974	8549.625
2854.76927	8530.825
2857.28724	8502.425
2859.80367	8513.525
2862.31855	8481.125
2864.83189	8491.625
2867.34368	8474.025
2869.85393	8457.925
2872.36264	8472.625
2874.8698	8449.525
2877.37543	8432.025
2879.87952	8466.225
2882.38207	8448.025
2884.88308	8416.025
2887.38256	8439.125
2889.88051	8427.025
2892.37692	8434.025
2894.8718	8417.225
2897.36515	8428.525
2899.85698	8446.225
2902.34727	8452.725
2904.83604	8413.325
2907.32328	8453.125
2909.809	8436.325
2912.29319	8417.225
2914.77587	8426.825
2917.25702	8410.325
2919.73665	8415.625
2922.21476	8419.725
2924.69136	8412.925
2927.16644	8403.725
2929.64	8380.125
2932.11205	8375.525
2934.58258	8303.325
2937.05161	8338.425
2939.51912	8345.025
2941.98513	8339.725
2944.44962	8329.825
2946.91261	8274.325
2949.37409	8290.825
2951.83407	8273.425
2954.29254	8283.525
2956.74951	8289.225
2959.20498	8252.925
2961.65895	8253.425
2964.11142	8247.825
2966.56239	8235.225
2969.01186	8241.125
2971.45984	8201.225
2973.90632	8209.625
2976.35131	8197.925
2978.7948	8167.625
2981.23681	8148.325
2983.67732	8123.725
2986.11635	8110.225
2988.55388	8081.525
2990.98993	8049.725
2993.4245	8053.225
2995.85758	8032.825
2998.28917	8006.825
3000.71928	7999.525
3003.14791	7966.725
3005.57506	7975.425
3008.00073	7946.225
3010.42493	7932.825
3012.84764	7914.725
3015.26888	7878.225
3017.68865	7865.125
3020.10694	7865.525
3022.52376	7850.825
3024.9391	7821.525
3027.35298	7824.825
3029.76539	7808.125
3032.17632	7791.625
3034.5858	7806.225
3036.9938	7808.925
3039.40034	7805.025
3041.80542	7784.625
3044.20903	7759.225
3046.61118	7758.425
3049.01187	7738.725
3051.4111	7720.025
3053.80888	7704.925
3056.20519	7685.125
3058.60005	7676.525
3060.99345	7662.925
3063.3854	7659.025
3065.7759	7615.625
3068.16494	7608.825
3070.55254	7594.425
3072.93868	7581.025
3075.32338	7552.025
3077.70662	7544.625
3080.08842	7518.925
3082.46878	7501.025
3084.84769	7495.025
3087.22515	7486.225
3089.60118	7492.825
3091.97576	7492.625
3094.3489	7471.625
3096.72061	7498.425
3099.09087	7481.625
3101.4597	7478.925
3103.82709	7464.825
3106.19305	7458.325
3108.55757	7458.625
3110.92066	7451.425
3113.28232	7448.425
3115.64255	7445.925
3118.00134	7410.525
3120.35871	7400.525
3122.71466	7367.725
3125.06917	7369.625
3127.42226	7335.325
3129.77393	7343.225
3132.12417	7347.725
3134.47299	7321.625
3136.82039	7337.725
3139.16636	7334.125
3141.51092	7322.925
3143.85406	7305.925
3146.19579	7317.825
3148.53609	7323.625
3150.87499	7291.825
3153.21246	7329.825
3155.54853	7338.725
3157.88318	7320.325
3160.21642	7335.425
3162.54826	7328.725
3164.87868	7328.925
3167.2077	7326.825
3169.5353	7344.625
3171.86151	7311.925
3174.18631	7315.525
3176.5097	7309.725
3178.83169	7296.225
3181.15228	7285.925
3183.47147	7284.825
3185.78926	7288.925
3188.10565	7263.625
3190.42065	7275.225
3192.73424	7263.625
3195.04645	7267.825
3197.35725	7257.925
3199.66667	7249.925
3201.97469	7245.025
3204.28132	7229.925
3206.58656	7240.225
3208.8904	7247.425
3211.19287	7262.125
3213.49394	7254.825
3215.79363	7261.225
3218.09193	7257.325
3220.38884	7241.125
3222.68438	7251.625
3224.97853	7261.925
3227.2713	7256.825
3229.56269	7237.325
3231.8527	7226.425
3234.14133	7193.525
3236.42858	7187.725
3238.71446	7148.925
3240.99896	7160.025
3243.28209	7123.525
3245.56384	7155.925
3247.84423	7143.325
3250.12324	7140.925
3252.40088	7129.225
3254.67715	7114.025
3256.95205	7098.725
3259.22558	7114.325
3261.49775	7082.425
3263.76855	7082.625
3266.03799	7080.825
3268.30606	7054.725
3270.57277	7051.425
3272.83812	7018.025
3275.10211	6975.825
3277.36474	6986.525
3279.62601	6984.425
3281.88593	6982.025
3284.14448	6982.825
3286.40168	6980.125
3288.65753	6970.525
3290.91202	6971.625
3293.16516	6950.925
3295.41695	6950.125
3297.66738	6907.825
3299.91647	6866.125
3302.16421	6825.325
3304.4106	6780.525
3306.65564	6723.625
3308.89933	6677.425
3311.14169	6650.025
3313.38269	6575.925
3315.62236	6525.225
3317.86068	6487.625
3320.09766	6427.225
3322.3333	6395.125
3324.5676	6339.825
3326.80056	6228.325
3329.03219	6187.725
3331.26248	2.625
3333.49143	-0.075
3335.71905	-0.275
