Data from AgNP_FTO_APTES_UA_10uM_CRN_20uM_R6G_10uM_NaF_0.1M_Addition_RamanShift__32__16-40-10-776.txt Node

Date: Thu Feb 10 16:40:10 GMT 2022
User: TCL
Spectrometer: QEP01345
Trigger mode: 4
Integration Time (sec): 7.000000E0
Scans to average: 10
Electric dark correction enabled: true
Nonlinearity correction enabled: false
Boxcar width: 0
XAxis mode: Raman Shifts
Number of Pixels in Spectrum: 1044
>>>>>Begin Spectral Data<<<<<
46.04893	0.725
50.45542	-0.075
54.85868	-1.675
59.25871	0.025
63.6555	41.225
68.04907	45.925
72.43941	51.125
76.82654	48.225
81.21044	53.425
85.59113	54.525
89.96862	58.325
94.34289	60.325
98.71396	60.625
103.08183	62.825
107.4465	68.925
111.80798	62.025
116.16626	67.125
120.52136	67.025
124.87327	72.825
129.222	72.625
133.56755	77.525
137.90993	75.325
142.24913	79.825
146.58517	93.325
150.91804	110.225
155.24774	125.025
159.57429	149.625
163.89768	186.625
168.21792	241.325
172.53501	331.025
176.84895	448.425
181.15975	619.925
185.46741	863.225
189.77193	1192.625
194.07331	1580.525
198.37157	2044.125
202.6667	2505.225
206.9587	2956.425
211.24758	3447.625
215.53334	3949.325
219.81599	4502.325
224.09553	5154.025
228.37195	5851.925
232.64527	6634.125
236.91549	7395.825
241.18261	8081.125
245.44663	8635.425
249.70755	9081.925
253.96539	9419.325
258.22014	9723.325
262.4718	10058.325
266.72039	10331.425
270.96589	10545.825
275.20832	10601.925
279.44768	10554.125
283.68397	10431.625
287.91719	10376.625
292.14735	10430.325
296.37445	10713.825
300.59849	11134.825
304.81948	11600.925
309.03742	11903.125
313.25231	11829.425
317.46415	11149.725
321.67296	10169.725
325.87872	9382.025
330.08145	9012.225
334.28114	8971.425
338.47781	9113.925
342.67145	9422.825
346.86207	9855.825
351.04966	10544.025
355.23424	11271.425
359.4158	11816.925
363.59435	12032.725
367.76989	12108.325
371.94243	12045.025
376.11196	11947.825
380.27849	11885.825
384.44203	11697.925
388.60257	11509.725
392.76012	11430.025
396.91468	11503.425
401.06626	11842.725
405.21485	12116.025
409.36047	11833.225
413.50311	11092.025
417.64277	10415.225
421.77947	10039.025
425.9132	9905.625
430.04396	9883.325
434.17176	9910.725
438.2966	10032.325
442.41849	10243.125
446.53742	10513.525
450.6534	10818.525
454.76644	11017.625
458.87653	11032.525
462.98368	10942.425
467.08789	10780.625
471.18916	10525.525
475.2875	10262.325
479.38291	10031.825
483.4754	9855.425
487.56496	9667.225
491.6516	9573.625
495.73531	9553.625
499.81612	9607.125
503.89401	9756.825
507.96899	9890.125
512.04106	10061.625
516.11023	10234.325
520.1765	10360.325
524.23987	10308.525
528.30034	10077.525
532.35792	9812.325
536.41261	9558.525
540.46441	9288.325
544.51333	9223.825
548.55936	9320.325
552.60252	9599.825
556.64279	9944.925
560.6802	10066.725
564.71473	10219.525
568.7464	10652.525
572.7752	10980.125
576.80114	10643.825
580.82422	10198.325
584.84444	9954.325
588.86181	9853.625
592.87633	9827.925
596.888	9910.125
600.89682	10385.325
604.9028	11823.325
608.90594	15709.725
612.90624	20962.625
616.90371	19939.125
620.89834	13246.625
624.89015	10174.025
628.87913	9601.525
632.86528	9700.325
636.84862	9908.825
640.82913	9782.625
644.80683	9294.725
648.78172	8967.125
652.75379	9001.125
656.72306	9449.625
660.68952	10035.225
664.65319	9912.525
668.61405	9305.225
672.57211	9021.125
676.52738	9009.025
680.47986	9016.325
684.42955	8934.625
688.37646	8890.625
692.32058	8927.625
696.26192	9015.925
700.20048	9180.925
704.13626	9262.925
708.06928	9285.925
711.99952	9186.825
715.927	9137.925
719.85171	9174.125
723.77365	9147.625
727.69284	9066.525
731.60928	8918.725
735.52295	8902.025
739.43388	8940.525
743.34206	8986.325
747.24749	9007.225
751.15017	9131.425
755.05012	9346.625
758.94733	9915.825
762.8418	11163.525
766.73354	13389.425
770.62254	15735.525
774.50882	16899.525
778.39237	15964.525
782.27321	13503.125
786.15132	11187.025
790.02671	9875.225
793.89938	9337.725
797.76935	9080.625
801.6366	8968.125
805.50115	8879.525
809.36299	8816.325
813.22213	8790.825
817.07857	8792.625
820.93231	8754.325
824.78336	8799.425
828.63172	8848.525
832.47738	8847.725
836.32036	8830.425
840.16066	8770.725
843.99827	8716.025
847.8332	8690.525
851.66546	8647.025
855.49504	8663.425
859.32195	8637.825
863.1462	8603.025
866.96777	8584.025
870.78668	8519.125
874.60293	8560.225
878.41652	8581.025
882.22745	8645.725
886.03573	8690.025
889.84136	8666.925
893.64433	8600.425
897.44466	8583.525
901.24235	8578.725
905.0374	8564.025
908.8298	8558.825
912.61957	8553.125
916.40671	8618.925
920.19121	8707.425
923.97308	8770.725
927.75233	8842.325
931.52895	8906.725
935.30295	8781.825
939.07433	8524.125
942.84309	8262.825
946.60924	8115.525
950.37278	8032.125
954.13371	7993.825
957.89203	7968.525
961.64774	7947.625
965.40086	7916.325
969.15137	7910.425
972.89929	7885.925
976.64461	7852.325
980.38733	7862.825
984.12747	7850.325
987.86502	7898.225
991.59999	7941.625
995.33237	8035.625
999.06217	8203.525
1002.78939	8434.925
1006.51404	8608.325
1010.23611	8870.225
1013.95561	8994.425
1017.67255	8967.825
1021.38692	8832.525
1025.09872	8676.325
1028.80796	8606.525
1032.51465	8625.125
1036.21877	8757.025
1039.92035	8853.025
1043.61937	8864.125
1047.31584	8861.325
1051.00976	8826.225
1054.70114	8777.425
1058.38998	8810.425
1062.07627	8891.425
1065.76003	8958.325
1069.44126	8993.925
1073.11995	9078.425
1076.79611	9167.725
1080.46974	9343.325
1084.14085	9633.025
1087.80943	9939.825
1091.47549	10106.725
1095.13903	9924.325
1098.80005	9549.825
1102.45857	9209.225
1106.11456	9015.525
1109.76805	9077.625
1113.41903	9303.025
1117.06751	9652.725
1120.71348	10092.625
1124.35696	10563.825
1127.99793	10993.725
1131.63641	10986.025
1135.2724	10422.925
1138.90589	9826.225
1142.5369	9484.625
1146.16542	9274.425
1149.79145	9172.225
1153.415	9180.625
1157.03607	9288.025
1160.65467	9547.225
1164.27079	9935.125
1167.88443	10519.625
1171.49561	11469.825
1175.10432	13160.325
1178.71056	15299.625
1182.31434	16806.825
1185.91565	17028.525
1189.51451	16415.525
1193.11091	15213.625
1196.70485	13809.125
1200.29634	12872.125
1203.88538	12191.325
1207.47197	11362.125
1211.05612	10670.225
1214.63782	10283.025
1218.21708	10121.425
1221.79391	10115.625
1225.36829	10184.325
1228.94024	10224.425
1232.50976	10272.225
1236.07685	10312.925
1239.6415	10347.625
1243.20374	10409.325
1246.76355	10494.925
1250.32093	10646.925
1253.8759	10944.025
1257.42845	11315.525
1260.97859	11718.425
1264.52631	12080.725
1268.07163	12460.525
1271.61453	12801.725
1275.15503	13087.425
1278.69312	13100.725
1282.22882	13125.625
1285.76211	13380.425
1289.29301	13815.025
1292.82151	14213.125
1296.34761	14682.225
1299.87133	15451.825
1303.39266	16832.825
1306.9116	18876.225
1310.42815	21360.625
1313.94233	22911.325
1317.45412	22570.525
1320.96354	20963.925
1324.47058	19115.125
1327.97525	17493.725
1331.47754	16523.725
1334.97747	16181.625
1338.47502	16223.325
1341.97022	16694.625
1345.46305	17335.225
1348.95352	18355.325
1352.44163	19763.525
1355.92738	21897.425
1359.41078	25446.425
1362.89183	28954.925
1366.37053	28219.225
1369.84688	23574.325
1373.32088	18978.325
1376.79254	16065.125
1380.26186	14654.325
1383.72883	13950.025
1387.19347	13476.225
1390.65578	12878.725
1394.11575	12433.025
1397.57339	12151.225
1401.0287	12157.525
1404.48168	12280.725
1407.93234	12485.525
1411.38068	12646.125
1414.82669	12639.025
1418.27039	12446.525
1421.71177	12165.825
1425.15083	11860.525
1428.58758	11625.625
1432.02203	11597.725
1435.45416	11707.625
1438.88399	11801.525
1442.31151	11836.125
1445.73673	11897.425
1449.15965	11993.425
1452.58027	11999.725
1455.9986	11905.225
1459.41463	11859.325
1462.82837	11960.025
1466.23982	12279.125
1469.64898	12601.525
1473.05586	12829.625
1476.46045	13018.225
1479.86276	13329.225
1483.26279	13675.125
1486.66054	14114.925
1490.05602	14604.625
1493.44922	15346.025
1496.84016	16485.325
1500.22882	18272.725
1503.61521	20662.225
1506.99934	23466.125
1510.38121	26282.025
1513.76081	27762.725
1517.13816	26600.625
1520.51324	23275.625
1523.88607	19753.125
1527.25665	17296.325
1530.62498	15815.525
1533.99105	14909.725
1537.35488	14319.525
1540.71647	13963.925
1544.07581	13723.925
1547.4329	13587.825
1550.78776	13519.425
1554.14038	13509.025
1557.49077	13684.425
1560.83892	14040.425
1564.18484	14539.825
1567.52853	15044.325
1570.86999	15434.025
1574.20922	15633.025
1577.54624	15479.225
1580.88103	14598.325
1584.2136	13502.825
1587.54395	12889.125
1590.87208	13029.025
1594.19801	13723.825
1597.52172	14756.425
1600.84321	15140.325
1604.16251	14497.625
1607.47959	13522.125
1610.79447	12491.225
1614.10715	11513.225
1617.41763	10727.325
1620.7259	10217.125
1624.03199	9946.925
1627.33587	9942.225
1630.63757	10182.525
1633.93707	10671.025
1637.23439	11480.825
1640.52951	12677.625
1643.82246	14335.325
1647.11321	16462.725
1650.40179	18243.025
1653.68819	18017.025
1656.97241	15623.625
1660.25446	12770.825
1663.53433	10744.025
1666.81203	9522.925
1670.08756	8799.525
1673.36092	8357.025
1676.63211	8104.225
1679.90115	7906.625
1683.16801	7776.625
1686.43272	7674.225
1689.69527	7619.725
1692.95567	7581.225
1696.2139	7550.725
1699.46999	7551.725
1702.72392	7505.725
1705.97571	7489.825
1709.22535	7459.025
1712.47284	7457.325
1715.71819	7458.425
1718.96139	7448.425
1722.20246	7427.125
1725.44139	7381.725
1728.67818	7314.925
1731.91284	7267.525
1735.14537	7183.425
1738.37576	7151.625
1741.60403	7131.325
1744.83017	7104.025
1748.05418	7049.525
1751.27607	7051.525
1754.49584	7033.125
1757.71349	7068.425
1760.92903	7036.925
1764.14244	7005.925
1767.35375	6996.825
1770.56294	6967.525
1773.77002	6956.225
1776.97499	6930.425
1780.17785	6900.925
1783.37861	6877.925
1786.57727	6846.125
1789.77382	6852.725
1792.96828	6828.925
1796.16064	6825.425
1799.3509	6814.825
1802.53907	6786.625
1805.72514	6770.425
1808.90913	6742.325
1812.09102	6722.725
1815.27083	6698.025
1818.44856	6693.125
1821.6242	6668.225
1824.79776	6681.625
1827.96924	6645.125
1831.13864	6652.325
1834.30597	6624.125
1837.47122	6629.625
1840.6344	6621.525
1843.7955	6615.525
1846.95454	6608.325
1850.11151	6597.725
1853.26642	6606.525
1856.41926	6613.325
1859.57004	6607.825
1862.71876	6590.925
1865.86542	6575.425
1869.01003	6599.125
1872.15258	6596.825
1875.29308	6590.525
1878.43152	6610.325
1881.56792	6585.125
1884.70227	6595.125
1887.83457	6584.225
1890.96482	6600.625
1894.09304	6578.625
1897.21921	6576.525
1900.34335	6581.025
1903.46544	6576.125
1906.58551	6588.725
1909.70353	6592.225
1912.81953	6603.625
1915.93349	6597.525
1919.04543	6590.725
1922.15534	6575.125
1925.26322	6558.325
1928.36908	6528.925
1931.47292	6511.825
1934.57473	6491.725
1937.67453	6427.825
1940.77232	6432.125
1943.86808	6401.725
1946.96184	6352.825
1950.05358	6323.425
1953.14331	6291.925
1956.23103	6274.325
1959.31675	6255.525
1962.40046	6234.125
1965.48217	6233.025
1968.56188	6209.125
1971.63959	6196.125
1974.7153	6160.925
1977.78901	6151.825
1980.86073	6142.925
1983.93046	6120.525
1986.99819	6080.625
1990.06394	6037.625
1993.1277	6036.625
1996.18947	6015.025
1999.24925	6001.925
2002.30706	5968.325
2005.36288	5953.425
2008.41672	5936.525
2011.46859	5898.625
2014.51848	5907.125
2017.56639	5899.325
2020.61233	5867.325
2023.6563	5861.925
2026.6983	5833.725
2029.73833	5807.925
2032.7764	5798.325
2035.8125	5782.325
2038.84664	5774.425
2041.87881	5739.825
2044.90903	5736.425
2047.93729	5736.525
2050.96359	5729.825
2053.98794	5714.225
2057.01034	5693.325
2060.03078	5698.725
2063.04927	5696.225
2066.06582	5693.325
2069.08042	5682.925
2072.09307	5683.025
2075.10378	5668.225
2078.11255	5651.225
2081.11938	5656.925
2084.12426	5642.225
2087.12722	5651.025
2090.12824	5654.025
2093.12732	5640.225
2096.12447	5630.525
2099.11969	5632.125
2102.11299	5623.225
2105.10435	5632.425
2108.09379	5634.125
2111.08131	5623.225
2114.0669	5617.825
2117.05057	5638.825
2120.03233	5640.925
2123.01216	5638.725
2125.99008	5657.725
2128.96609	5632.325
2131.94018	5665.125
2134.91236	5665.025
2137.88263	5653.325
2140.851	5649.525
2143.81746	5657.725
2146.78201	5636.525
2149.74466	5639.125
2152.7054	5641.925
2155.66425	5638.625
2158.6212	5624.025
2161.57625	5633.125
2164.52941	5612.025
2167.48067	5620.325
2170.43004	5598.025
2173.37752	5595.125
2176.32311	5614.325
2179.26681	5617.225
2182.20863	5590.025
2185.14856	5596.625
2188.08661	5612.125
2191.02278	5605.825
2193.95707	5599.925
2196.88948	5588.625
2199.82001	5572.925
2202.74867	5557.425
2205.67545	5568.525
2208.60037	5554.625
2211.52341	5555.525
2214.44458	5536.125
2217.36388	5519.625
2220.28132	5516.725
2223.1969	5495.925
2226.11061	5492.325
2229.02246	5473.925
2231.93245	5457.625
2234.84058	5451.425
2237.74686	5448.925
2240.65128	5418.225
2243.55385	5421.025
2246.45456	5406.525
2249.35343	5400.825
2252.25044	5418.625
2255.14561	5405.925
2258.03893	5410.025
2260.93041	5407.425
2263.82004	5379.125
2266.70783	5397.825
2269.59378	5364.725
2272.4779	5343.525
2275.36017	5315.825
2278.24061	5326.825
2281.11922	5300.425
2283.996	5296.225
2286.87094	5289.525
2289.74405	5279.125
2292.61534	5269.725
2295.4848	5259.525
2298.35243	5259.525
2301.21824	5246.925
2304.08223	5248.325
2306.94439	5222.225
2309.80474	5233.525
2312.66327	5236.325
2315.51999	5220.025
2318.37489	5221.225
2321.22797	5213.725
2324.07925	5216.125
2326.92871	5186.125
2329.77637	5186.425
2332.62222	5179.825
2335.46626	5187.825
2338.3085	5181.625
2341.14893	5181.725
2343.98756	5190.525
2346.8244	5198.525
2349.65943	5177.625
2352.49267	5196.025
2355.32411	5196.725
2358.15376	5214.425
2360.98161	5215.425
2363.80768	5226.725
2366.63195	5241.125
2369.45444	5220.425
2372.27514	5230.025
2375.09405	5233.825
2377.91118	5216.125
2380.72652	5169.425
2383.54009	5140.825
2386.35187	5128.725
2389.16188	5085.525
2391.97011	5069.525
2394.77657	5070.425
2397.58125	5038.125
2400.38416	5036.625
2403.18529	5026.825
2405.98466	4999.025
2408.78226	4983.425
2411.57809	4980.125
2414.37216	4988.325
2417.16446	4982.325
2419.955	4954.825
2422.74378	4962.525
2425.5308	4940.225
2428.31606	4949.025
2431.09956	4960.125
2433.88131	4959.125
2436.6613	4951.525
2439.43954	4955.625
2442.21603	4969.625
2444.99077	4958.625
2447.76377	4961.325
2450.53501	4958.725
2453.30451	4962.225
2456.07226	4942.825
2458.83827	4957.625
2461.60254	4943.925
2464.36507	4924.125
2467.12586	4918.625
2469.88492	4922.325
2472.64224	4925.425
2475.39782	4932.525
2478.15167	4938.525
2480.90379	4960.925
2483.65417	4961.525
2486.40283	4963.225
2489.14976	4988.225
2491.89497	4985.825
2494.63845	5008.525
2497.3802	4980.525
2500.12024	4957.225
2502.85855	4965.825
2505.59514	4954.825
2508.33002	4927.925
2511.06318	4910.925
2513.79462	4890.725
2516.52435	4884.525
2519.25237	4845.825
2521.97867	4822.625
2524.70327	4816.925
2527.42616	4814.725
2530.14734	4801.825
2532.86681	4810.425
2535.58458	4815.625
2538.30065	4808.025
2541.01501	4792.725
2543.72768	4799.725
2546.43864	4782.725
2549.14791	4799.825
2551.85548	4799.425
2554.56136	4788.925
2557.26554	4761.025
2559.96803	4778.925
2562.66883	4764.925
2565.36794	4754.925
2568.06536	4745.025
2570.7611	4724.525
2573.45514	4711.325
2576.14751	4724.225
2578.83819	4713.725
2581.52719	4703.925
2584.21451	4703.825
2586.90015	4683.625
2589.58411	4681.325
2592.2664	4679.925
2594.94701	4670.025
2597.62594	4684.025
2600.30321	4658.625
2602.9788	4650.425
2605.65273	4649.125
2608.32498	4659.425
2610.99557	4657.925
2613.66449	4667.625
2616.33175	4645.625
2618.99734	4636.325
2621.66128	4649.825
2624.32355	4645.225
2626.98416	4631.125
2629.64311	4617.625
2632.30041	4622.125
2634.95605	4611.725
2637.61004	4604.125
2640.26238	4573.425
2642.91306	4586.225
2645.56209	4591.225
2648.20948	4579.725
2650.85521	4569.325
2653.4993	4558.925
2656.14175	4560.625
2658.78255	4576.225
2661.42171	4584.425
2664.05923	4582.225
2666.6951	4609.625
2669.32934	4604.125
2671.96194	4597.625
2674.59291	4624.225
2677.22224	4609.025
2679.84993	4614.425
2682.476	4605.525
2685.10043	4614.925
2687.72324	4601.125
2690.34441	4595.225
2692.96396	4597.025
2695.58188	4603.825
2698.19818	4591.525
2700.81285	4581.925
2703.4259	4596.725
2706.03733	4605.725
2708.64714	4571.525
2711.25533	4582.925
2713.86191	4588.025
2716.46687	4599.225
2719.07021	4605.425
2721.67194	4606.725
2724.27206	4598.125
2726.87057	4616.725
2729.46747	4613.025
2732.06276	4611.125
2734.65644	4598.625
2737.24852	4599.325
2739.83899	4570.225
2742.42786	4596.125
2745.01513	4553.925
2747.60079	4563.025
2750.18486	4547.725
2752.76733	4559.125
2755.3482	4540.425
2757.92747	4533.925
2760.50515	4517.325
2763.08123	4525.525
2765.65573	4520.025
2768.22863	4496.525
2770.79994	4503.525
2773.36967	4494.525
2775.9378	4512.525
2778.50435	4516.925
2781.06932	4509.025
2783.6327	4497.625
2786.1945	4504.625
2788.75471	4490.225
2791.31335	4493.625
2793.87041	4474.025
2796.42589	4477.425
2798.97979	4479.925
2801.53212	4476.425
2804.08288	4457.425
2806.63206	4465.525
2809.17967	4460.625
2811.72571	4456.125
2814.27018	4451.825
2816.81308	4439.025
2819.35442	4459.225
2821.89419	4465.425
2824.43239	4462.825
2826.96904	4472.825
2829.50412	4462.625
2832.03763	4481.325
2834.56959	4458.525
2837.1	4460.325
2839.62884	4491.625
2842.15613	4482.525
2844.68186	4512.125
2847.20604	4536.325
2849.72867	4557.325
2852.24974	4572.925
2854.76927	4553.025
2857.28724	4550.725
2859.80367	4551.925
2862.31855	4540.725
2864.83189	4528.725
2867.34368	4519.825
2869.85393	4521.425
2872.36264	4516.825
2874.8698	4521.425
2877.37543	4517.325
2879.87952	4516.525
2882.38207	4494.325
2884.88308	4502.925
2887.38256	4507.425
2889.88051	4504.025
2892.37692	4478.125
2894.8718	4483.125
2897.36515	4502.525
2899.85698	4490.125
2902.34727	4501.025
2904.83604	4487.825
2907.32328	4507.225
2909.809	4504.025
2912.29319	4517.525
2914.77587	4522.625
2917.25702	4499.625
2919.73665	4496.125
2922.21476	4495.425
2924.69136	4496.425
2927.16644	4492.925
2929.64	4495.525
2932.11205	4463.925
2934.58258	4448.525
2937.05161	4445.025
2939.51912	4442.125
2941.98513	4404.825
2944.44962	4386.825
2946.91261	4373.325
2949.37409	4345.925
2951.83407	4341.025
2954.29254	4335.325
2956.74951	4335.625
2959.20498	4317.725
2961.65895	4308.625
2964.11142	4302.425
2966.56239	4291.625
2969.01186	4285.425
2971.45984	4275.725
2973.90632	4270.725
2976.35131	4254.225
2978.7948	4236.625
2981.23681	4243.925
2983.67732	4238.925
2986.11635	4220.525
2988.55388	4211.325
2990.98993	4196.225
2993.4245	4186.225
2995.85758	4176.125
2998.28917	4162.625
3000.71928	4155.525
3003.14791	4157.225
3005.57506	4159.025
3008.00073	4131.025
3010.42493	4115.125
3012.84764	4117.725
3015.26888	4109.125
3017.68865	4117.725
3020.10694	4093.225
3022.52376	4097.425
3024.9391	4085.725
3027.35298	4088.925
3029.76539	4090.325
3032.17632	4082.825
3034.5858	4084.925
3036.9938	4072.425
3039.40034	4059.825
3041.80542	4075.925
3044.20903	4047.625
3046.61118	4055.325
3049.01187	4032.425
3051.4111	4048.425
3053.80888	4024.325
3056.20519	4006.025
3058.60005	4004.225
3060.99345	4008.425
3063.3854	3996.125
3065.7759	3979.425
3068.16494	3976.225
3070.55254	3980.225
3072.93868	3952.725
3075.32338	3949.625
3077.70662	3931.125
3080.08842	3926.425
3082.46878	3927.925
3084.84769	3910.925
3087.22515	3912.225
3089.60118	3900.825
3091.97576	3901.225
3094.3489	3888.925
3096.72061	3894.325
3099.09087	3901.625
3101.4597	3880.625
3103.82709	3902.125
3106.19305	3891.625
3108.55757	3874.925
3110.92066	3862.925
3113.28232	3862.925
3115.64255	3858.625
3118.00134	3847.825
3120.35871	3861.325
3122.71466	3832.525
3125.06917	3852.525
3127.42226	3848.825
3129.77393	3851.425
3132.12417	3851.925
3134.47299	3829.225
3136.82039	3846.125
3139.16636	3848.125
3141.51092	3856.825
3143.85406	3853.825
3146.19579	3854.425
3148.53609	3856.925
3150.87499	3851.725
3153.21246	3853.125
3155.54853	3877.725
3157.88318	3873.025
3160.21642	3890.025
3162.54826	3889.425
3164.87868	3889.525
3167.2077	3894.425
3169.5353	3899.725
3171.86151	3899.225
3174.18631	3896.925
3176.5097	3891.825
3178.83169	3891.225
3181.15228	3868.425
3183.47147	3893.525
3185.78926	3874.925
3188.10565	3880.125
3190.42065	3871.825
3192.73424	3878.325
3195.04645	3884.325
3197.35725	3883.925
3199.66667	3889.925
3201.97469	3906.325
3204.28132	3897.525
3206.58656	3901.625
3208.8904	3900.525
3211.19287	3910.225
3213.49394	3911.525
3215.79363	3907.725
3218.09193	3923.325
3220.38884	3931.925
3222.68438	3910.325
3224.97853	3918.925
3227.2713	3908.625
3229.56269	3919.225
3231.8527	3910.025
3234.14133	3885.025
3236.42858	3905.525
3238.71446	3902.125
3240.99896	3896.625
3243.28209	3868.025
3245.56384	3875.225
3247.84423	3870.825
3250.12324	3868.425
3252.40088	3858.625
3254.67715	3863.025
3256.95205	3865.725
3259.22558	3862.025
3261.49775	3834.825
3263.76855	3837.625
3266.03799	3842.925
3268.30606	3833.425
3270.57277	3831.625
3272.83812	3821.325
3275.10211	3820.525
3277.36474	3803.525
3279.62601	3796.625
3281.88593	3780.025
3284.14448	3793.525
3286.40168	3790.825
3288.65753	3805.125
3290.91202	3807.225
3293.16516	3779.125
3295.41695	3784.025
3297.66738	3760.225
3299.91647	3741.125
3302.16421	3712.625
3304.4106	3706.425
3306.65564	3679.325
3308.89933	3639.125
3311.14169	3621.725
3313.38269	3570.025
3315.62236	3552.425
3317.86068	3541.725
3320.09766	3502.825
3322.3333	3480.425
3324.5676	3454.425
3326.80056	3406.025
3329.03219	3364.625
3331.26248	2.325
3333.49143	-1.175
3335.71905	-0.875
