Data from AgNPs_FTO_APTES_UA_0.1mM_CRN_500uM_NaF_0.1M_Addition_RamanShift__5__14-40-17-760.txt Node

Date: Mon Dec 20 14:40:17 GMT 2021
User: TCL
Spectrometer: QEP01345
Trigger mode: 4
Integration Time (sec): 7.000000E0
Scans to average: 10
Electric dark correction enabled: true
Nonlinearity correction enabled: false
Boxcar width: 0
XAxis mode: Raman Shifts
Number of Pixels in Spectrum: 1044
>>>>>Begin Spectral Data<<<<<
46.04893	0.4
50.45542	-0
54.85868	-1.5
59.25871	1.5
63.6555	25.4
68.04907	26.9
72.43941	23
76.82654	28.2
81.21044	29.4
85.59113	37.9
89.96862	31.1
94.34289	35.1
98.71396	34.3
103.08183	35.3
107.4465	36.4
111.80798	41.6
116.16626	38.8
120.52136	39.7
124.87327	42.1
129.222	39.2
133.56755	39.5
137.90993	41
142.24913	44.6
146.58517	42.5
150.91804	53.8
155.24774	60.7
159.57429	66.5
163.89768	82.4
168.21792	104.2
172.53501	129.3
176.84895	170.9
181.15975	237.3
185.46741	322.4
189.77193	434.4
194.07331	581.1
198.37157	750.4
202.6667	921.1
206.9587	1108.7
211.24758	1282.1
215.53334	1473.5
219.81599	1668
224.09553	1887.5
228.37195	2123
232.64527	2406.6
236.91549	2670.6
241.18261	2932.8
245.44663	3151.6
249.70755	3345.9
253.96539	3489.4
258.22014	3561.1
262.4718	3597.7
266.72039	3612
270.96589	3608.4
275.20832	3557.1
279.44768	3479.1
283.68397	3410.8
287.91719	3352.2
292.14735	3304.8
296.37445	3236.2
300.59849	3221.2
304.81948	3187.1
309.03742	3158.9
313.25231	3134.6
317.46415	3092.9
321.67296	3046.1
325.87872	3009.1
330.08145	2989.4
334.28114	2989.6
338.47781	2979.1
342.67145	3000.4
346.86207	3009.6
351.04966	3034.2
355.23424	3061.4
359.4158	3098.7
363.59435	3135.8
367.76989	3177.9
371.94243	3213.3
376.11196	3261.6
380.27849	3289.9
384.44203	3330.2
388.60257	3362.4
392.76012	3391.9
396.91468	3425.7
401.06626	3456.7
405.21485	3470.7
409.36047	3476.4
413.50311	3476.5
417.64277	3453.2
421.77947	3458.4
425.9132	3465.1
430.04396	3465.3
434.17176	3478.2
438.2966	3484.1
442.41849	3509.6
446.53742	3525.1
450.6534	3548.9
454.76644	3552.7
458.87653	3585.6
462.98368	3591.5
467.08789	3593
471.18916	3622.8
475.2875	3627.2
479.38291	3675.3
483.4754	3729.1
487.56496	3851.7
491.6516	3971.6
495.73531	4071.1
499.81612	4088.7
503.89401	4059.1
507.96899	3981.4
512.04106	3900.6
516.11023	3852.3
520.1765	3846.8
524.23987	3846.9
528.30034	3869.8
532.35792	3903.4
536.41261	3881.6
540.46441	3841.5
544.51333	3783.7
548.55936	3733.8
552.60252	3686.5
556.64279	3662.1
560.6802	3653
564.71473	3636
568.7464	3653.2
572.7752	3678.2
576.80114	3708.2
580.82422	3750.9
584.84444	3830.8
588.86181	3959.7
592.87633	4029.8
596.888	3994.4
600.89682	3956
604.9028	3946.6
608.90594	4047
612.90624	4200.5
616.90371	4266.7
620.89834	4253.9
624.89015	4423.5
628.87913	4782.6
632.86528	5206.9
636.84862	5503.4
640.82913	5519.2
644.80683	5325.7
648.78172	4972.7
652.75379	4642.7
656.72306	4403.9
660.68952	4230.7
664.65319	4138.3
668.61405	4055.7
672.57211	4032.5
676.52738	4045.9
680.47986	4074.3
684.42955	4065.9
688.37646	4032.6
692.32058	3954.3
696.26192	3888.1
700.20048	3836.8
704.13626	3801
708.06928	3782.3
711.99952	3762.5
715.927	3765.4
719.85171	3801.1
723.77365	3855.1
727.69284	3893.8
731.60928	3874.6
735.52295	3796.8
739.43388	3744.6
743.34206	3735.1
747.24749	3719.2
751.15017	3723.4
755.05012	3732.6
758.94733	3750.4
762.8418	3797.9
766.73354	3863.6
770.62254	3907.8
774.50882	3926
778.39237	3877.1
782.27321	3767
786.15132	3713.8
790.02671	3674.1
793.89938	3658.4
797.76935	3686.6
801.6366	3744.1
805.50115	3864.6
809.36299	4042.9
813.22213	4146.5
817.07857	4111.4
820.93231	3982.4
824.78336	3797.5
828.63172	3665.6
832.47738	3562.4
836.32036	3533.9
840.16066	3508
843.99827	3513.6
847.8332	3494.5
851.66546	3488.3
855.49504	3492.7
859.32195	3495
863.1462	3514.2
866.96777	3552.7
870.78668	3617.5
874.60293	3692.6
878.41652	3803.7
882.22745	3915.2
886.03573	3995.8
889.84136	4019
893.64433	3978.6
897.44466	3832.4
901.24235	3696.3
905.0374	3545.3
908.8298	3471.5
912.61957	3402.5
916.40671	3379.8
920.19121	3357.2
923.97308	3346.1
927.75233	3353
931.52895	3317.9
935.30295	3317.2
939.07433	3293.6
942.84309	3268
946.60924	3277.7
950.37278	3261.2
954.13371	3254.2
957.89203	3245.1
961.64774	3242.4
965.40086	3236.7
969.15137	3217.3
972.89929	3204.6
976.64461	3194.8
980.38733	3189.9
984.12747	3182.1
987.86502	3195.2
991.59999	3216.3
995.33237	3217.6
999.06217	3259.4
1002.78939	3304.9
1006.51404	3356.3
1010.23611	3390
1013.95561	3449.6
1017.67255	3472.2
1021.38692	3473
1025.09872	3435.5
1028.80796	3404.8
1032.51465	3356.3
1036.21877	3323.1
1039.92035	3277.4
1043.61937	3252.2
1047.31584	3237.9
1051.00976	3222.3
1054.70114	3245.8
1058.38998	3271.4
1062.07627	3303
1065.76003	3331.4
1069.44126	3386.4
1073.11995	3421.9
1076.79611	3450.5
1080.46974	3427.2
1084.14085	3383.1
1087.80943	3334.9
1091.47549	3289.2
1095.13903	3262.5
1098.80005	3237.8
1102.45857	3229
1106.11456	3237.8
1109.76805	3273.5
1113.41903	3368.3
1117.06751	3536.8
1120.71348	3778.4
1124.35696	4122.7
1127.99793	4501.3
1131.63641	4839.3
1135.2724	4991.1
1138.90589	4938.2
1142.5369	4736
1146.16542	4436.5
1149.79145	4082.1
1153.415	3782.6
1157.03607	3571.7
1160.65467	3414.5
1164.27079	3324.8
1167.88443	3288.7
1171.49561	3298.4
1175.10432	3333.3
1178.71056	3414.5
1182.31434	3503.8
1185.91565	3556.6
1189.51451	3627
1193.11091	3688.9
1196.70485	3736.6
1200.29634	3837
1203.88538	3894.9
1207.47197	3916.8
1211.05612	3849.1
1214.63782	3755.5
1218.21708	3632.8
1221.79391	3527.9
1225.36829	3422.5
1228.94024	3350.6
1232.50976	3308.1
1236.07685	3283.8
1239.6415	3273
1243.20374	3285.2
1246.76355	3306.4
1250.32093	3345.4
1253.8759	3386.2
1257.42845	3402.4
1260.97859	3434.7
1264.52631	3448.1
1268.07163	3473.4
1271.61453	3465.3
1275.15503	3471
1278.69312	3462
1282.22882	3419.7
1285.76211	3416
1289.29301	3417.2
1292.82151	3421.3
1296.34761	3444.8
1299.87133	3485.9
1303.39266	3573.5
1306.9116	3654.5
1310.42815	3755.9
1313.94233	3801.8
1317.45412	3830.3
1320.96354	3813.3
1324.47058	3807.8
1327.97525	3804.6
1331.47754	3812.9
1334.97747	3847.7
1338.47502	3869.2
1341.97022	3924.5
1345.46305	3980.8
1348.95352	4065.6
1352.44163	4162.3
1355.92738	4271
1359.41078	4394.6
1362.89183	4531.9
1366.37053	4582.9
1369.84688	4445.5
1373.32088	4288.8
1376.79254	4132.7
1380.26186	4007.3
1383.72883	3926.6
1387.19347	3844.9
1390.65578	3732.3
1394.11575	3657.1
1397.57339	3580.5
1401.0287	3517.5
1404.48168	3448.8
1407.93234	3391.9
1411.38068	3318.3
1414.82669	3247.9
1418.27039	3177.8
1421.71177	3101.9
1425.15083	3057.4
1428.58758	3010.5
1432.02203	2967.5
1435.45416	2957.8
1438.88399	2943
1442.31151	2938
1445.73673	2937.7
1449.15965	2935.9
1452.58027	2946.2
1455.9986	2936.8
1459.41463	2950.1
1462.82837	2961
1466.23982	2970.8
1469.64898	2999.2
1473.05586	3011.6
1476.46045	3028.3
1479.86276	3036
1483.26279	3062.2
1486.66054	3073.6
1490.05602	3110.7
1493.44922	3174.3
1496.84016	3242.3
1500.22882	3321.5
1503.61521	3436.1
1506.99934	3538.5
1510.38121	3607
1513.76081	3622.8
1517.13816	3568.2
1520.51324	3462.2
1523.88607	3352.3
1527.25665	3301.1
1530.62498	3309
1533.99105	3313.5
1537.35488	3343.4
1540.71647	3374.3
1544.07581	3409.2
1547.4329	3435.6
1550.78776	3471.6
1554.14038	3489.2
1557.49077	3511.1
1560.83892	3509.6
1564.18484	3521.1
1567.52853	3514.9
1570.86999	3527.5
1574.20922	3524.7
1577.54624	3510.9
1580.88103	3485.4
1584.2136	3438.2
1587.54395	3386.8
1590.87208	3373.7
1594.19801	3369.8
1597.52172	3393.6
1600.84321	3420.6
1604.16251	3414.5
1607.47959	3392.6
1610.79447	3377.2
1614.10715	3347.2
1617.41763	3341.5
1620.7259	3336.1
1624.03199	3348.4
1627.33587	3388.6
1630.63757	3435.7
1633.93707	3536.7
1637.23439	3624.7
1640.52951	3763.1
1643.82246	3915.5
1647.11321	4070
1650.40179	4188.1
1653.68819	4184.4
1656.97241	4096
1660.25446	3940.9
1663.53433	3823
1666.81203	3733.3
1670.08756	3671.4
1673.36092	3616.5
1676.63211	3602.5
1679.90115	3587.5
1683.16801	3578.8
1686.43272	3530.3
1689.69527	3465.6
1692.95567	3403.8
1696.2139	3342.8
1699.46999	3279.5
1702.72392	3227.6
1705.97571	3125.7
1709.22535	2998
1712.47284	2882.7
1715.71819	2776.7
1718.96139	2674.2
1722.20246	2600.9
1725.44139	2531.8
1728.67818	2468.6
1731.91284	2425.4
1735.14537	2384.7
1738.37576	2346.5
1741.60403	2333.3
1744.83017	2303.6
1748.05418	2293.8
1751.27607	2275.1
1754.49584	2283.4
1757.71349	2280.5
1760.92903	2276.2
1764.14244	2255.4
1767.35375	2249.7
1770.56294	2236.6
1773.77002	2217.5
1776.97499	2204.4
1780.17785	2192.7
1783.37861	2177.8
1786.57727	2173.8
1789.77382	2156.4
1792.96828	2146.9
1796.16064	2115.3
1799.3509	2123
1802.53907	2113.3
1805.72514	2103.7
1808.90913	2102.9
1812.09102	2088.9
1815.27083	2083.1
1818.44856	2068.4
1821.6242	2063.2
1824.79776	2069.2
1827.96924	2055.3
1831.13864	2046.3
1834.30597	2046.2
1837.47122	2033.4
1840.6344	2033.7
1843.7955	2043.4
1846.95454	2020
1850.11151	2028.2
1853.26642	2028.3
1856.41926	2019.2
1859.57004	2008.8
1862.71876	2012.4
1865.86542	2007.2
1869.01003	2001.3
1872.15258	1994.6
1875.29308	1975.4
1878.43152	1993.1
1881.56792	1983
1884.70227	1979.4
1887.83457	1968.1
1890.96482	1967.7
1894.09304	1970.1
1897.21921	1954.5
1900.34335	1946.1
1903.46544	1945.4
1906.58551	1939.3
1909.70353	1940.2
1912.81953	1931.8
1915.93349	1928.3
1919.04543	1918.2
1922.15534	1915
1925.26322	1904.3
1928.36908	1907.5
1931.47292	1900.3
1934.57473	1902.5
1937.67453	1890.8
1940.77232	1879
1943.86808	1889.5
1946.96184	1874.8
1950.05358	1869.8
1953.14331	1859.6
1956.23103	1852.9
1959.31675	1841.9
1962.40046	1843.1
1965.48217	1834
1968.56188	1825.7
1971.63959	1815
1974.7153	1804.3
1977.78901	1808.1
1980.86073	1798.8
1983.93046	1790.3
1986.99819	1786.5
1990.06394	1781.2
1993.1277	1788.5
1996.18947	1762.1
1999.24925	1767.2
2002.30706	1760.6
2005.36288	1741.3
2008.41672	1741.7
2011.46859	1733.1
2014.51848	1724.9
2017.56639	1722.7
2020.61233	1711.8
2023.6563	1718.9
2026.6983	1700.1
2029.73833	1698.8
2032.7764	1702.1
2035.8125	1691.3
2038.84664	1688.7
2041.87881	1679
2044.90903	1675.4
2047.93729	1674.1
2050.96359	1665.5
2053.98794	1665.3
2057.01034	1660.7
2060.03078	1656.6
2063.04927	1649.6
2066.06582	1656.1
2069.08042	1658.2
2072.09307	1643.2
2075.10378	1647.6
2078.11255	1644.5
2081.11938	1655.1
2084.12426	1646.5
2087.12722	1637.4
2090.12824	1643.3
2093.12732	1642.1
2096.12447	1640.6
2099.11969	1636.3
2102.11299	1642.7
2105.10435	1635.3
2108.09379	1631.7
2111.08131	1634.3
2114.0669	1639.7
2117.05057	1633.7
2120.03233	1630.6
2123.01216	1631.9
2125.99008	1624.8
2128.96609	1623.5
2131.94018	1635.2
2134.91236	1632.5
2137.88263	1634
2140.851	1631.8
2143.81746	1638
2146.78201	1630.6
2149.74466	1616.3
2152.7054	1624.1
2155.66425	1629
2158.6212	1625.2
2161.57625	1622.2
2164.52941	1617.2
2167.48067	1614.2
2170.43004	1609.6
2173.37752	1597.9
2176.32311	1615
2179.26681	1605.7
2182.20863	1598
2185.14856	1598.4
2188.08661	1596.6
2191.02278	1600.1
2193.95707	1594
2196.88948	1594.6
2199.82001	1584.4
2202.74867	1584.4
2205.67545	1573.4
2208.60037	1579.2
2211.52341	1579.6
2214.44458	1569.5
2217.36388	1553.4
2220.28132	1561.2
2223.1969	1546
2226.11061	1544.2
2229.02246	1541.2
2231.93245	1535
2234.84058	1536.9
2237.74686	1532.4
2240.65128	1527
2243.55385	1520.5
2246.45456	1522.7
2249.35343	1524.6
2252.25044	1507.1
2255.14561	1510.6
2258.03893	1519.5
2260.93041	1526.2
2263.82004	1514.7
2266.70783	1503.2
2269.59378	1499.4
2272.4779	1483.1
2275.36017	1486.3
2278.24061	1471.3
2281.11922	1473.1
2283.996	1477
2286.87094	1474
2289.74405	1466.5
2292.61534	1461.2
2295.4848	1459.8
2298.35243	1453.7
2301.21824	1452.8
2304.08223	1449.4
2306.94439	1449.8
2309.80474	1444.7
2312.66327	1447.5
2315.51999	1445.3
2318.37489	1430.9
2321.22797	1435
2324.07925	1430.2
2326.92871	1428.5
2329.77637	1423.1
2332.62222	1417.6
2335.46626	1427.5
2338.3085	1415.9
2341.14893	1404.5
2343.98756	1400.6
2346.8244	1405.6
2349.65943	1397
2352.49267	1398.9
2355.32411	1387.4
2358.15376	1388.8
2360.98161	1386
2363.80768	1392.4
2366.63195	1390.9
2369.45444	1388.2
2372.27514	1377
2375.09405	1396.4
2377.91118	1375.7
2380.72652	1379.3
2383.54009	1367.8
2386.35187	1371.6
2389.16188	1363.7
2391.97011	1362.3
2394.77657	1357.9
2397.58125	1350.5
2400.38416	1353.5
2403.18529	1351.5
2405.98466	1337.6
2408.78226	1334.1
2411.57809	1337.9
2414.37216	1325.2
2417.16446	1341.6
2419.955	1325.8
2422.74378	1328
2425.5308	1325.4
2428.31606	1324.4
2431.09956	1314.5
2433.88131	1314.4
2436.6613	1312.8
2439.43954	1308.8
2442.21603	1302.3
2444.99077	1306.3
2447.76377	1302.6
2450.53501	1300.4
2453.30451	1303.7
2456.07226	1294.1
2458.83827	1291.7
2461.60254	1287.7
2464.36507	1285.2
2467.12586	1286.2
2469.88492	1284.9
2472.64224	1278.5
2475.39782	1289
2478.15167	1286.5
2480.90379	1276.5
2483.65417	1274.9
2486.40283	1277.3
2489.14976	1271.4
2491.89497	1267.2
2494.63845	1266.6
2497.3802	1265.7
2500.12024	1259.3
2502.85855	1260.8
2505.59514	1261.2
2508.33002	1258.6
2511.06318	1255.1
2513.79462	1256
2516.52435	1248.2
2519.25237	1247.6
2521.97867	1243.8
2524.70327	1242.4
2527.42616	1241.9
2530.14734	1247.2
2532.86681	1234.3
2535.58458	1227.3
2538.30065	1225.4
2541.01501	1219.8
2543.72768	1226.9
2546.43864	1223.5
2549.14791	1222.1
2551.85548	1212.6
2554.56136	1206.5
2557.26554	1204
2559.96803	1200.1
2562.66883	1201.8
2565.36794	1196.2
2568.06536	1195.9
2570.7611	1195.5
2573.45514	1186.4
2576.14751	1188.1
2578.83819	1180
2581.52719	1172.9
2584.21451	1178.4
2586.90015	1173.7
2589.58411	1173.5
2592.2664	1164.1
2594.94701	1164.6
2597.62594	1161.6
2600.30321	1157.1
2602.9788	1156.1
2605.65273	1158.9
2608.32498	1151.7
2610.99557	1148.8
2613.66449	1154.1
2616.33175	1145.2
2618.99734	1147.4
2621.66128	1141
2624.32355	1139.3
2626.98416	1140.3
2629.64311	1133.3
2632.30041	1132.8
2634.95605	1139.4
2637.61004	1136.6
2640.26238	1123.5
2642.91306	1123.4
2645.56209	1116.4
2648.20948	1124.7
2650.85521	1124.4
2653.4993	1127
2656.14175	1123.6
2658.78255	1118.6
2661.42171	1110.5
2664.05923	1112.4
2666.6951	1113.4
2669.32934	1112.5
2671.96194	1112.4
2674.59291	1111.5
2677.22224	1116.7
2679.84993	1112.3
2682.476	1115.5
2685.10043	1117.1
2687.72324	1101.3
2690.34441	1109.4
2692.96396	1107.5
2695.58188	1114
2698.19818	1113.3
2700.81285	1122.4
2703.4259	1116.3
2706.03733	1147.9
2708.64714	1135.4
2711.25533	1122.4
2713.86191	1113.4
2716.46687	1110.2
2719.07021	1124.4
2721.67194	1106.5
2724.27206	1105.4
2726.87057	1107
2729.46747	1106.6
2732.06276	1114.3
2734.65644	1106.9
2737.24852	1106.3
2739.83899	1102.4
2742.42786	1099.4
2745.01513	1098.5
2747.60079	1103.7
2750.18486	1087.1
2752.76733	1094.4
2755.3482	1089.7
2757.92747	1088.8
2760.50515	1088.7
2763.08123	1077.9
2765.65573	1079.9
2768.22863	1086.3
2770.79994	1077.6
2773.36967	1076.9
2775.9378	1079.9
2778.50435	1072.3
2781.06932	1063
2783.6327	1064.3
2786.1945	1062.1
2788.75471	1067.1
2791.31335	1070.1
2793.87041	1063.7
2796.42589	1060.6
2798.97979	1055.9
2801.53212	1045.5
2804.08288	1053.4
2806.63206	1051.8
2809.17967	1037.8
2811.72571	1040.8
2814.27018	1039.3
2816.81308	1035
2819.35442	1036.7
2821.89419	1035.8
2824.43239	1035.2
2826.96904	1031.4
2829.50412	1034.6
2832.03763	1038.2
2834.56959	1034.8
2837.1	1029.3
2839.62884	1032.5
2842.15613	1035.6
2844.68186	1037.9
2847.20604	1035.6
2849.72867	1028.2
2852.24974	1039.6
2854.76927	1047.2
2857.28724	1044.5
2859.80367	1037.7
2862.31855	1033.8
2864.83189	1036
2867.34368	1040.8
2869.85393	1031.6
2872.36264	1036
2874.8698	1038.7
2877.37543	1044.3
2879.87952	1035.5
2882.38207	1039.9
2884.88308	1041.3
2887.38256	1038.6
2889.88051	1043
2892.37692	1039.8
2894.8718	1042.2
2897.36515	1041.5
2899.85698	1047.4
2902.34727	1049.7
2904.83604	1053.8
2907.32328	1052.8
2909.809	1058.3
2912.29319	1051.7
2914.77587	1055.4
2917.25702	1058.7
2919.73665	1057.6
2922.21476	1064.5
2924.69136	1069.4
2927.16644	1066.1
2929.64	1050.7
2932.11205	1065.8
2934.58258	1070
2937.05161	1064.6
2939.51912	1062.1
2941.98513	1067.4
2944.44962	1072.4
2946.91261	1070.9
2949.37409	1063.9
2951.83407	1064.8
2954.29254	1059.5
2956.74951	1056.7
2959.20498	1061.7
2961.65895	1052.8
2964.11142	1046.2
2966.56239	1049.9
2969.01186	1046.9
2971.45984	1043.2
2973.90632	1039
2976.35131	1033.4
2978.7948	1044.1
2981.23681	1026.3
2983.67732	1038.3
2986.11635	1029
2988.55388	1027.3
2990.98993	1027.9
2993.4245	1033.2
2995.85758	1032
2998.28917	1026.6
3000.71928	1029.3
3003.14791	1029.6
3005.57506	1030.1
3008.00073	1037.4
3010.42493	1036.8
3012.84764	1033.5
3015.26888	1033.1
3017.68865	1031.1
3020.10694	1039.8
3022.52376	1039.6
3024.9391	1039.5
3027.35298	1037.2
3029.76539	1037.9
3032.17632	1052.7
3034.5858	1040.4
3036.9938	1043.7
3039.40034	1043.3
3041.80542	1041.4
3044.20903	1053.8
3046.61118	1044.6
3049.01187	1051.7
3051.4111	1052.5
3053.80888	1055.1
3056.20519	1057.4
3058.60005	1060.5
3060.99345	1057.2
3063.3854	1052.6
3065.7759	1067.7
3068.16494	1064.7
3070.55254	1068.6
3072.93868	1074.9
3075.32338	1070.1
3077.70662	1079.9
3080.08842	1081.9
3082.46878	1088
3084.84769	1081
3087.22515	1092.5
3089.60118	1093.6
3091.97576	1095.8
3094.3489	1104.2
3096.72061	1107.4
3099.09087	1117.5
3101.4597	1120.8
3103.82709	1130.5
3106.19305	1126.2
3108.55757	1141.9
3110.92066	1137.8
3113.28232	1134.8
3115.64255	1144
3118.00134	1152
3120.35871	1155.8
3122.71466	1154.3
3125.06917	1159.7
3127.42226	1160.7
3129.77393	1173.5
3132.12417	1184.7
3134.47299	1188.2
3136.82039	1194.8
3139.16636	1188.9
3141.51092	1213.4
3143.85406	1214.4
3146.19579	1219.4
3148.53609	1224.1
3150.87499	1235.7
3153.21246	1238.8
3155.54853	1258.8
3157.88318	1265.1
3160.21642	1267.2
3162.54826	1274.7
3164.87868	1279.3
3167.2077	1285.5
3169.5353	1296.1
3171.86151	1297.1
3174.18631	1304.8
3176.5097	1302.4
3178.83169	1313
3181.15228	1320.7
3183.47147	1323
3185.78926	1328.1
3188.10565	1322.9
3190.42065	1336.9
3192.73424	1347.6
3195.04645	1345.8
3197.35725	1352.9
3199.66667	1357.8
3201.97469	1368.6
3204.28132	1368.9
3206.58656	1374.1
3208.8904	1369.7
3211.19287	1387.1
3213.49394	1386.2
3215.79363	1394.6
3218.09193	1398.3
3220.38884	1403.8
3222.68438	1415
3224.97853	1399.7
3227.2713	1399.2
3229.56269	1417.9
3231.8527	1403.2
3234.14133	1405.8
3236.42858	1402.5
3238.71446	1406.3
3240.99896	1399.9
3243.28209	1408.4
3245.56384	1409.7
3247.84423	1414.1
3250.12324	1408.5
3252.40088	1409
3254.67715	1406.6
3256.95205	1408.3
3259.22558	1405.2
3261.49775	1404.5
3263.76855	1411.8
3266.03799	1403.1
3268.30606	1404
3270.57277	1399.5
3272.83812	1401.4
3275.10211	1400.9
3277.36474	1402.9
3279.62601	1394
3281.88593	1390.5
3284.14448	1393
3286.40168	1400.3
3288.65753	1395.6
3290.91202	1394.9
3293.16516	1386.5
3295.41695	1387.8
3297.66738	1379.9
3299.91647	1368.8
3302.16421	1358.3
3304.4106	1368.5
3306.65564	1362.1
3308.89933	1356
3311.14169	1350.6
3313.38269	1348.3
3315.62236	1329.1
3317.86068	1317.2
3320.09766	1308
3322.3333	1302.2
3324.5676	1309.1
3326.80056	1296.5
3329.03219	1282.5
3331.26248	-0.9
3333.49143	-0
3335.71905	0.2
