Data from AgNPs_FTO_APTES_UA_0.1mM_CRN_1000uM_NaF_0.1M_Addition_RamanShift__13__15-29-17-815.txt Node

Date: Mon Dec 20 15:29:17 GMT 2021
User: TCL
Spectrometer: QEP01345
Trigger mode: 4
Integration Time (sec): 7.000000E0
Scans to average: 10
Electric dark correction enabled: true
Nonlinearity correction enabled: false
Boxcar width: 0
XAxis mode: Raman Shifts
Number of Pixels in Spectrum: 1044
>>>>>Begin Spectral Data<<<<<
46.04893	1.325
50.45542	-0.675
54.85868	-2.175
59.25871	2.025
63.6555	19.325
68.04907	21.125
72.43941	22.825
76.82654	23.725
81.21044	22.425
85.59113	30.725
89.96862	25.425
94.34289	28.025
98.71396	30.325
103.08183	29.225
107.4465	30.525
111.80798	34.325
116.16626	31.325
120.52136	36.825
124.87327	34.425
129.222	32.025
133.56755	36.125
137.90993	36.125
142.24913	39.625
146.58517	38.825
150.91804	45.525
155.24774	50.925
159.57429	59.125
163.89768	73.125
168.21792	96.925
172.53501	126.825
176.84895	173.925
181.15975	247.525
185.46741	346.625
189.77193	482.525
194.07331	644.925
198.37157	830.025
202.6667	1036.625
206.9587	1222.125
211.24758	1429.125
215.53334	1607.825
219.81599	1812.525
224.09553	2019.325
228.37195	2263.325
232.64527	2543.525
236.91549	2834.125
241.18261	3117.125
245.44663	3399.625
249.70755	3623.525
253.96539	3778.125
258.22014	3859.625
262.4718	3868.225
266.72039	3801.625
270.96589	3679.925
275.20832	3521.025
279.44768	3347.625
283.68397	3188.325
287.91719	3029.525
292.14735	2910.025
296.37445	2804.225
300.59849	2738.125
304.81948	2683.425
309.03742	2640.125
313.25231	2591.725
317.46415	2586.625
321.67296	2544.525
325.87872	2521.325
330.08145	2509.525
334.28114	2503.925
338.47781	2501.425
342.67145	2508.625
346.86207	2513.325
351.04966	2529.025
355.23424	2541.225
359.4158	2558.525
363.59435	2575.925
367.76989	2594.625
371.94243	2618.725
376.11196	2641.625
380.27849	2679.125
384.44203	2701.225
388.60257	2743.725
392.76012	2817.825
396.91468	2894.525
401.06626	2995.425
405.21485	3087.425
409.36047	3135.225
413.50311	3145.225
417.64277	3095.725
421.77947	3066.225
425.9132	3021.425
430.04396	2996.425
434.17176	2984.625
438.2966	2961.225
442.41849	2938.325
446.53742	2937.725
450.6534	2924.125
454.76644	2930.525
458.87653	2942.825
462.98368	2939.125
467.08789	2939.725
471.18916	2953.525
475.2875	2964.425
479.38291	2990.425
483.4754	3047.625
487.56496	3092.225
491.6516	3143.925
495.73531	3172.525
499.81612	3194.925
503.89401	3224.525
507.96899	3218.125
512.04106	3208.325
516.11023	3182.925
520.1765	3116.125
524.23987	3062.225
528.30034	3017.825
532.35792	2988.125
536.41261	2956.925
540.46441	2936.825
544.51333	2926.725
548.55936	2923.225
552.60252	2914.825
556.64279	2915.925
560.6802	2936.825
564.71473	2950.525
568.7464	2972.625
572.7752	2959.625
576.80114	2971.725
580.82422	2984.125
584.84444	3006.025
588.86181	3037.925
592.87633	3057.025
596.888	3072.025
600.89682	3096.025
604.9028	3160.025
608.90594	3230.025
612.90624	3311.925
616.90371	3331.325
620.89834	3253.025
624.89015	3219.825
628.87913	3223.925
632.86528	3279.425
636.84862	3319.725
640.82913	3338.825
644.80683	3335.525
648.78172	3338.825
652.75379	3318.625
656.72306	3298.925
660.68952	3326.225
664.65319	3344.825
668.61405	3432.725
672.57211	3494.925
676.52738	3567.925
680.47986	3599.825
684.42955	3622.225
688.37646	3637.525
692.32058	3644.525
696.26192	3601.725
700.20048	3547.025
704.13626	3446.325
708.06928	3335.525
711.99952	3228.925
715.927	3132.625
719.85171	3082.525
723.77365	3051.725
727.69284	3039.125
731.60928	3030.825
735.52295	3038.425
739.43388	3066.725
743.34206	3095.525
747.24749	3127.425
751.15017	3171.425
755.05012	3234.325
758.94733	3250.625
762.8418	3273.425
766.73354	3269.525
770.62254	3240.725
774.50882	3231.925
778.39237	3189.125
782.27321	3142.825
786.15132	3060.225
790.02671	3017.925
793.89938	3000.325
797.76935	3003.025
801.6366	3054.725
805.50115	3087.025
809.36299	3123.125
813.22213	3134.925
817.07857	3091.325
820.93231	3051.625
824.78336	2980.925
828.63172	2921.725
832.47738	2873.525
836.32036	2848.225
840.16066	2857.925
843.99827	2844.925
847.8332	2851.725
851.66546	2853.925
855.49504	2855.725
859.32195	2860.525
863.1462	2843.325
866.96777	2846.125
870.78668	2847.225
874.60293	2869.625
878.41652	2891.125
882.22745	2904.525
886.03573	2926.725
889.84136	2937.425
893.64433	2942.825
897.44466	2953.225
901.24235	2963.425
905.0374	2925.225
908.8298	2916.925
912.61957	2899.825
916.40671	2881.425
920.19121	2875.425
923.97308	2833.925
927.75233	2826.525
931.52895	2823.025
935.30295	2801.125
939.07433	2805.625
942.84309	2776.725
946.60924	2776.925
950.37278	2772.425
954.13371	2764.525
957.89203	2768.625
961.64774	2770.625
965.40086	2763.625
969.15137	2762.625
972.89929	2750.625
976.64461	2758.425
980.38733	2755.225
984.12747	2746.625
987.86502	2754.925
991.59999	2759.125
995.33237	2766.325
999.06217	2769.325
1002.78939	2762.625
1006.51404	2764.425
1010.23611	2785.525
1013.95561	2797.425
1017.67255	2809.225
1021.38692	2798.825
1025.09872	2808.425
1028.80796	2804.725
1032.51465	2817.425
1036.21877	2825.225
1039.92035	2822.825
1043.61937	2813.825
1047.31584	2821.625
1051.00976	2823.425
1054.70114	2829.325
1058.38998	2840.125
1062.07627	2839.225
1065.76003	2836.525
1069.44126	2838.125
1073.11995	2823.825
1076.79611	2820.025
1080.46974	2808.525
1084.14085	2783.925
1087.80943	2779.525
1091.47549	2755.225
1095.13903	2750.925
1098.80005	2746.525
1102.45857	2734.225
1106.11456	2751.625
1109.76805	2758.725
1113.41903	2803.825
1117.06751	2845.125
1120.71348	2894.625
1124.35696	2958.125
1127.99793	3012.425
1131.63641	3078.825
1135.2724	3106.325
1138.90589	3128.925
1142.5369	3109.725
1146.16542	3089.425
1149.79145	3020.725
1153.415	2962.325
1157.03607	2907.225
1160.65467	2871.825
1164.27079	2813.125
1167.88443	2807.825
1171.49561	2804.325
1175.10432	2818.725
1178.71056	2844.025
1182.31434	2871.025
1185.91565	2897.925
1189.51451	2905.325
1193.11091	2901.325
1196.70485	2905.525
1200.29634	2912.125
1203.88538	2919.225
1207.47197	2927.625
1211.05612	2933.025
1214.63782	2973.425
1218.21708	3003.425
1221.79391	3004.425
1225.36829	3016.925
1228.94024	2993.725
1232.50976	2975.825
1236.07685	2949.625
1239.6415	2933.225
1243.20374	2942.025
1246.76355	2942.025
1250.32093	2980.225
1253.8759	2994.325
1257.42845	3018.825
1260.97859	3028.225
1264.52631	3048.325
1268.07163	3043.925
1271.61453	3036.225
1275.15503	3001.525
1278.69312	2964.625
1282.22882	2924.925
1285.76211	2918.125
1289.29301	2894.025
1292.82151	2908.925
1296.34761	2920.225
1299.87133	2940.325
1303.39266	2973.725
1306.9116	3025.625
1310.42815	3076.925
1313.94233	3122.325
1317.45412	3142.225
1320.96354	3156.825
1324.47058	3162.525
1327.97525	3165.825
1331.47754	3174.425
1334.97747	3187.225
1338.47502	3194.025
1341.97022	3237.025
1345.46305	3267.425
1348.95352	3317.725
1352.44163	3358.325
1355.92738	3410.925
1359.41078	3453.425
1362.89183	3501.125
1366.37053	3498.825
1369.84688	3434.225
1373.32088	3366.525
1376.79254	3305.525
1380.26186	3263.025
1383.72883	3239.125
1387.19347	3193.425
1390.65578	3149.525
1394.11575	3127.925
1397.57339	3083.125
1401.0287	3040.925
1404.48168	3019.925
1407.93234	2987.825
1411.38068	2964.025
1414.82669	2932.025
1418.27039	2906.425
1421.71177	2889.725
1425.15083	2858.225
1428.58758	2817.925
1432.02203	2800.325
1435.45416	2767.825
1438.88399	2730.325
1442.31151	2712.825
1445.73673	2704.225
1449.15965	2681.625
1452.58027	2665.825
1455.9986	2649.625
1459.41463	2653.225
1462.82837	2665.825
1466.23982	2677.925
1469.64898	2698.125
1473.05586	2713.325
1476.46045	2728.425
1479.86276	2738.425
1483.26279	2744.225
1486.66054	2746.525
1490.05602	2737.425
1493.44922	2770.525
1496.84016	2776.125
1500.22882	2831.225
1503.61521	2850.425
1506.99934	2895.125
1510.38121	2934.325
1513.76081	2940.625
1517.13816	2912.925
1520.51324	2901.125
1523.88607	2878.025
1527.25665	2861.525
1530.62498	2882.325
1533.99105	2885.925
1537.35488	2905.925
1540.71647	2950.125
1544.07581	2977.225
1547.4329	3019.425
1550.78776	3044.425
1554.14038	3104.125
1557.49077	3128.425
1560.83892	3169.425
1564.18484	3183.725
1567.52853	3225.225
1570.86999	3239.825
1574.20922	3265.425
1577.54624	3266.725
1580.88103	3276.125
1584.2136	3282.425
1587.54395	3277.725
1590.87208	3283.225
1594.19801	3275.825
1597.52172	3266.825
1600.84321	3251.925
1604.16251	3236.925
1607.47959	3216.125
1610.79447	3187.325
1614.10715	3151.525
1617.41763	3126.425
1620.7259	3097.425
1624.03199	3068.225
1627.33587	3058.225
1630.63757	3039.825
1633.93707	3044.425
1637.23439	3050.025
1640.52951	3057.225
1643.82246	3063.025
1647.11321	3113.225
1650.40179	3118.025
1653.68819	3119.525
1656.97241	3096.925
1660.25446	3049.525
1663.53433	3021.325
1666.81203	2996.625
1670.08756	2960.125
1673.36092	2926.325
1676.63211	2906.325
1679.90115	2869.125
1683.16801	2830.825
1686.43272	2769.825
1689.69527	2737.825
1692.95567	2688.025
1696.2139	2664.225
1699.46999	2632.925
1702.72392	2603.825
1705.97571	2555.225
1709.22535	2528.525
1712.47284	2504.025
1715.71819	2484.825
1718.96139	2455.725
1722.20246	2431.925
1725.44139	2394.625
1728.67818	2382.625
1731.91284	2349.625
1735.14537	2321.325
1738.37576	2300.725
1741.60403	2274.325
1744.83017	2274.925
1748.05418	2272.625
1751.27607	2275.825
1754.49584	2268.225
1757.71349	2273.525
1760.92903	2267.525
1764.14244	2258.125
1767.35375	2245.525
1770.56294	2214.825
1773.77002	2175.225
1776.97499	2141.325
1780.17785	2105.725
1783.37861	2072.125
1786.57727	2055.025
1789.77382	2024.925
1792.96828	2007.025
1796.16064	1980.925
1799.3509	1963.925
1802.53907	1945.425
1805.72514	1933.225
1808.90913	1919.925
1812.09102	1906.825
1815.27083	1896.225
1818.44856	1897.825
1821.6242	1881.025
1824.79776	1869.425
1827.96924	1868.225
1831.13864	1851.325
1834.30597	1858.725
1837.47122	1847.025
1840.6344	1838.925
1843.7955	1831.425
1846.95454	1831.825
1850.11151	1827.025
1853.26642	1811.025
1856.41926	1818.125
1859.57004	1810.225
1862.71876	1809.425
1865.86542	1801.425
1869.01003	1792.125
1872.15258	1777.825
1875.29308	1784.625
1878.43152	1783.125
1881.56792	1758.125
1884.70227	1758.425
1887.83457	1758.325
1890.96482	1761.425
1894.09304	1754.525
1897.21921	1744.825
1900.34335	1750.225
1903.46544	1743.725
1906.58551	1740.125
1909.70353	1725.025
1912.81953	1735.625
1915.93349	1724.225
1919.04543	1722.325
1922.15534	1728.725
1925.26322	1711.525
1928.36908	1704.325
1931.47292	1696.525
1934.57473	1702.325
1937.67453	1682.825
1940.77232	1683.425
1943.86808	1684.325
1946.96184	1672.925
1950.05358	1662.125
1953.14331	1660.225
1956.23103	1660.125
1959.31675	1637.625
1962.40046	1645.925
1965.48217	1638.825
1968.56188	1630.425
1971.63959	1621.725
1974.7153	1612.325
1977.78901	1604.825
1980.86073	1612.925
1983.93046	1592.925
1986.99819	1591.825
1990.06394	1575.025
1993.1277	1584.825
1996.18947	1577.725
1999.24925	1567.325
2002.30706	1555.925
2005.36288	1556.225
2008.41672	1557.525
2011.46859	1544.025
2014.51848	1533.825
2017.56639	1530.125
2020.61233	1529.725
2023.6563	1518.725
2026.6983	1510.225
2029.73833	1507.325
2032.7764	1505.125
2035.8125	1501.625
2038.84664	1498.225
2041.87881	1485.125
2044.90903	1480.725
2047.93729	1478.225
2050.96359	1474.925
2053.98794	1474.925
2057.01034	1480.825
2060.03078	1467.225
2063.04927	1467.425
2066.06582	1461.525
2069.08042	1462.725
2072.09307	1456.825
2075.10378	1465.525
2078.11255	1453.025
2081.11938	1454.625
2084.12426	1455.225
2087.12722	1454.225
2090.12824	1454.125
2093.12732	1451.325
2096.12447	1452.925
2099.11969	1442.125
2102.11299	1454.125
2105.10435	1443.125
2108.09379	1450.525
2111.08131	1451.025
2114.0669	1438.825
2117.05057	1447.525
2120.03233	1440.025
2123.01216	1441.225
2125.99008	1450.025
2128.96609	1453.325
2131.94018	1439.125
2134.91236	1440.225
2137.88263	1438.725
2140.851	1444.025
2143.81746	1450.725
2146.78201	1444.125
2149.74466	1446.625
2152.7054	1431.725
2155.66425	1440.625
2158.6212	1434.525
2161.57625	1434.825
2164.52941	1435.425
2167.48067	1431.825
2170.43004	1431.025
2173.37752	1428.325
2176.32311	1422.925
2179.26681	1431.725
2182.20863	1423.025
2185.14856	1422.425
2188.08661	1417.325
2191.02278	1417.925
2193.95707	1407.625
2196.88948	1414.325
2199.82001	1410.625
2202.74867	1399.625
2205.67545	1401.725
2208.60037	1397.325
2211.52341	1397.725
2214.44458	1391.525
2217.36388	1384.125
2220.28132	1382.225
2223.1969	1375.825
2226.11061	1373.725
2229.02246	1368.525
2231.93245	1372.525
2234.84058	1357.825
2237.74686	1362.425
2240.65128	1353.525
2243.55385	1349.925
2246.45456	1347.225
2249.35343	1347.725
2252.25044	1350.125
2255.14561	1342.125
2258.03893	1338.725
2260.93041	1343.525
2263.82004	1338.125
2266.70783	1337.525
2269.59378	1323.225
2272.4779	1318.725
2275.36017	1309.625
2278.24061	1305.825
2281.11922	1303.425
2283.996	1298.325
2286.87094	1301.925
2289.74405	1296.225
2292.61534	1291.725
2295.4848	1293.725
2298.35243	1289.325
2301.21824	1292.325
2304.08223	1291.125
2306.94439	1284.025
2309.80474	1286.225
2312.66327	1273.425
2315.51999	1271.025
2318.37489	1269.425
2321.22797	1271.825
2324.07925	1257.225
2326.92871	1269.525
2329.77637	1262.625
2332.62222	1264.325
2335.46626	1255.925
2338.3085	1250.725
2341.14893	1253.725
2343.98756	1241.925
2346.8244	1237.325
2349.65943	1239.425
2352.49267	1232.425
2355.32411	1231.725
2358.15376	1233.725
2360.98161	1226.425
2363.80768	1224.825
2366.63195	1229.225
2369.45444	1223.525
2372.27514	1230.125
2375.09405	1228.325
2377.91118	1215.425
2380.72652	1211.325
2383.54009	1213.425
2386.35187	1206.825
2389.16188	1204.125
2391.97011	1201.425
2394.77657	1202.425
2397.58125	1194.625
2400.38416	1194.725
2403.18529	1188.625
2405.98466	1190.025
2408.78226	1180.925
2411.57809	1178.425
2414.37216	1183.625
2417.16446	1182.625
2419.955	1176.325
2422.74378	1182.625
2425.5308	1174.725
2428.31606	1159.725
2431.09956	1155.425
2433.88131	1164.625
2436.6613	1160.925
2439.43954	1159.825
2442.21603	1161.725
2444.99077	1150.025
2447.76377	1152.125
2450.53501	1158.925
2453.30451	1151.025
2456.07226	1146.325
2458.83827	1159.225
2461.60254	1143.025
2464.36507	1134.725
2467.12586	1139.625
2469.88492	1139.825
2472.64224	1133.825
2475.39782	1149.325
2478.15167	1147.125
2480.90379	1127.325
2483.65417	1125.825
2486.40283	1121.825
2489.14976	1123.825
2491.89497	1128.625
2494.63845	1122.025
2497.3802	1115.125
2500.12024	1109.725
2502.85855	1113.325
2505.59514	1115.125
2508.33002	1106.425
2511.06318	1105.425
2513.79462	1109.625
2516.52435	1101.825
2519.25237	1094.625
2521.97867	1095.525
2524.70327	1094.325
2527.42616	1094.125
2530.14734	1094.025
2532.86681	1091.625
2535.58458	1078.925
2538.30065	1090.325
2541.01501	1075.525
2543.72768	1082.725
2546.43864	1071.525
2549.14791	1078.925
2551.85548	1072.425
2554.56136	1067.525
2557.26554	1063.225
2559.96803	1060.825
2562.66883	1058.325
2565.36794	1059.325
2568.06536	1057.125
2570.7611	1053.925
2573.45514	1053.225
2576.14751	1044.125
2578.83819	1035.925
2581.52719	1047.225
2584.21451	1043.925
2586.90015	1039.325
2589.58411	1035.125
2592.2664	1031.625
2594.94701	1032.325
2597.62594	1024.725
2600.30321	1021.625
2602.9788	1019.925
2605.65273	1019.325
2608.32498	1019.325
2610.99557	1019.225
2613.66449	1015.025
2616.33175	1007.325
2618.99734	1003.925
2621.66128	1009.925
2624.32355	1008.125
2626.98416	1009.525
2629.64311	1003.625
2632.30041	1003.425
2634.95605	1000.125
2637.61004	997.825
2640.26238	1002.725
2642.91306	992.225
2645.56209	992.325
2648.20948	994.825
2650.85521	992.925
2653.4993	991.925
2656.14175	986.825
2658.78255	984.325
2661.42171	980.325
2664.05923	977.325
2666.6951	974.825
2669.32934	977.425
2671.96194	986.325
2674.59291	982.725
2677.22224	979.925
2679.84993	976.225
2682.476	979.925
2685.10043	974.925
2687.72324	983.925
2690.34441	972.425
2692.96396	976.925
2695.58188	973.625
2698.19818	968.225
2700.81285	978.525
2703.4259	989.725
2706.03733	1008.325
2708.64714	996.125
2711.25533	980.325
2713.86191	982.825
2716.46687	972.725
2719.07021	974.425
2721.67194	968.225
2724.27206	963.925
2726.87057	967.125
2729.46747	970.025
2732.06276	962.625
2734.65644	961.425
2737.24852	958.925
2739.83899	969.025
2742.42786	957.025
2745.01513	959.125
2747.60079	961.725
2750.18486	952.325
2752.76733	955.425
2755.3482	955.325
2757.92747	950.325
2760.50515	941.425
2763.08123	940.625
2765.65573	947.125
2768.22863	944.425
2770.79994	939.725
2773.36967	948.325
2775.9378	938.425
2778.50435	927.025
2781.06932	930.225
2783.6327	928.925
2786.1945	930.725
2788.75471	929.025
2791.31335	928.625
2793.87041	919.725
2796.42589	921.725
2798.97979	909.425
2801.53212	913.625
2804.08288	912.425
2806.63206	908.325
2809.17967	910.625
2811.72571	906.025
2814.27018	899.625
2816.81308	904.525
2819.35442	900.925
2821.89419	901.225
2824.43239	896.525
2826.96904	896.025
2829.50412	900.825
2832.03763	903.125
2834.56959	899.625
2837.1	888.725
2839.62884	893.725
2842.15613	890.025
2844.68186	889.925
2847.20604	895.825
2849.72867	889.825
2852.24974	889.325
2854.76927	898.325
2857.28724	896.625
2859.80367	883.125
2862.31855	882.025
2864.83189	880.825
2867.34368	877.825
2869.85393	885.925
2872.36264	868.425
2874.8698	880.725
2877.37543	874.125
2879.87952	881.125
2882.38207	880.625
2884.88308	876.525
2887.38256	877.825
2889.88051	879.725
2892.37692	881.125
2894.8718	879.725
2897.36515	883.025
2899.85698	886.825
2902.34727	886.925
2904.83604	888.025
2907.32328	899.225
2909.809	896.225
2912.29319	895.725
2914.77587	892.025
2917.25702	899.925
2919.73665	903.125
2922.21476	907.025
2924.69136	906.825
2927.16644	903.625
2929.64	909.225
2932.11205	913.025
2934.58258	915.925
2937.05161	911.825
2939.51912	907.925
2941.98513	911.525
2944.44962	920.425
2946.91261	913.425
2949.37409	909.825
2951.83407	921.525
2954.29254	917.625
2956.74951	914.325
2959.20498	909.325
2961.65895	903.125
2964.11142	903.625
2966.56239	901.025
2969.01186	900.225
2971.45984	897.725
2973.90632	880.725
2976.35131	882.025
2978.7948	895.025
2981.23681	880.925
2983.67732	882.325
2986.11635	882.925
2988.55388	863.325
2990.98993	865.825
2993.4245	866.525
2995.85758	862.325
2998.28917	867.425
3000.71928	861.325
3003.14791	864.925
3005.57506	864.325
3008.00073	863.325
3010.42493	864.825
3012.84764	859.825
3015.26888	859.525
3017.68865	862.125
3020.10694	859.725
3022.52376	858.625
3024.9391	862.625
3027.35298	854.925
3029.76539	859.025
3032.17632	853.025
3034.5858	850.225
3036.9938	863.925
3039.40034	856.825
3041.80542	862.425
3044.20903	854.125
3046.61118	852.025
3049.01187	860.925
3051.4111	854.025
3053.80888	858.225
3056.20519	858.125
3058.60005	858.625
3060.99345	864.025
3063.3854	853.325
3065.7759	857.025
3068.16494	863.125
3070.55254	861.125
3072.93868	855.725
3075.32338	864.125
3077.70662	863.425
3080.08842	861.825
3082.46878	871.625
3084.84769	868.225
3087.22515	872.725
3089.60118	875.325
3091.97576	874.725
3094.3489	880.125
3096.72061	888.425
3099.09087	882.225
3101.4597	891.025
3103.82709	893.925
3106.19305	897.425
3108.55757	895.325
3110.92066	897.925
3113.28232	899.325
3115.64255	903.725
3118.00134	902.525
3120.35871	901.725
3122.71466	907.925
3125.06917	914.825
3127.42226	910.125
3129.77393	917.825
3132.12417	918.125
3134.47299	922.125
3136.82039	925.825
3139.16636	928.725
3141.51092	931.725
3143.85406	938.025
3146.19579	952.525
3148.53609	953.525
3150.87499	959.825
3153.21246	964.125
3155.54853	956.125
3157.88318	968.625
3160.21642	977.525
3162.54826	975.225
3164.87868	980.125
3167.2077	982.825
3169.5353	988.125
3171.86151	990.625
3174.18631	993.525
3176.5097	993.525
3178.83169	996.325
3181.15228	993.125
3183.47147	1004.525
3185.78926	1012.025
3188.10565	1005.725
3190.42065	1017.525
3192.73424	1018.625
3195.04645	1018.425
3197.35725	1019.925
3199.66667	1029.925
3201.97469	1031.125
3204.28132	1043.125
3206.58656	1041.125
3208.8904	1040.925
3211.19287	1037.825
3213.49394	1054.425
3215.79363	1051.625
3218.09193	1045.625
3220.38884	1064.825
3222.68438	1062.525
3224.97853	1052.525
3227.2713	1060.425
3229.56269	1057.125
3231.8527	1057.325
3234.14133	1055.325
3236.42858	1048.225
3238.71446	1046.925
3240.99896	1053.125
3243.28209	1049.025
3245.56384	1052.225
3247.84423	1046.625
3250.12324	1051.125
3252.40088	1056.925
3254.67715	1057.425
3256.95205	1050.525
3259.22558	1056.425
3261.49775	1051.425
3263.76855	1047.925
3266.03799	1053.525
3268.30606	1045.525
3270.57277	1049.725
3272.83812	1045.925
3275.10211	1040.225
3277.36474	1049.525
3279.62601	1047.125
3281.88593	1049.425
3284.14448	1049.925
3286.40168	1047.025
3288.65753	1040.525
3290.91202	1048.025
3293.16516	1034.125
3295.41695	1032.925
3297.66738	1030.225
3299.91647	1028.825
3302.16421	1023.625
3304.4106	1025.325
3306.65564	1015.425
3308.89933	1014.525
3311.14169	1006.925
3313.38269	1000.725
3315.62236	1000.425
3317.86068	993.125
3320.09766	984.325
3322.3333	976.225
3324.5676	977.525
3326.80056	971.925
3329.03219	965.525
3331.26248	-1.375
3333.49143	1.025
3335.71905	-0.575
