Data from AgNPs_FTO_APTES_UA_0.1mM_CRN_1000uM_NaF_0.1M_Addition_RamanShift__18__15-35-07-821.txt Node

Date: Mon Dec 20 15:35:07 GMT 2021
User: TCL
Spectrometer: QEP01345
Trigger mode: 4
Integration Time (sec): 7.000000E0
Scans to average: 10
Electric dark correction enabled: true
Nonlinearity correction enabled: false
Boxcar width: 0
XAxis mode: Raman Shifts
Number of Pixels in Spectrum: 1044
>>>>>Begin Spectral Data<<<<<
46.04893	1.55
50.45542	-0.35
54.85868	-1.65
59.25871	1.05
63.6555	22.55
68.04907	22.45
72.43941	23.55
76.82654	27.45
81.21044	24.85
85.59113	30.45
89.96862	24.75
94.34289	30.45
98.71396	30.05
103.08183	32.95
107.4465	36.15
111.80798	34.55
116.16626	35.95
120.52136	34.65
124.87327	35.55
129.222	35.15
133.56755	34.85
137.90993	38.05
142.24913	40.45
146.58517	38.95
150.91804	48.95
155.24774	50.55
159.57429	56.45
163.89768	72.15
168.21792	95.75
172.53501	111.45
176.84895	150.35
181.15975	214.15
185.46741	288.95
189.77193	394.75
194.07331	531.25
198.37157	687.85
202.6667	865.55
206.9587	1044.05
211.24758	1226.75
215.53334	1413.95
219.81599	1602.35
224.09553	1790.85
228.37195	2005.55
232.64527	2213.05
236.91549	2422.45
241.18261	2627.15
245.44663	2792.25
249.70755	2944.05
253.96539	3048.45
258.22014	3135.15
262.4718	3178.15
266.72039	3190.65
270.96589	3156.75
275.20832	3127.95
279.44768	3063.25
283.68397	2995.65
287.91719	2935.85
292.14735	2882.85
296.37445	2808.65
300.59849	2799.65
304.81948	2771.15
309.03742	2747.45
313.25231	2724.05
317.46415	2697.15
321.67296	2671.35
325.87872	2638.75
330.08145	2626.55
334.28114	2630.45
338.47781	2638.45
342.67145	2648.05
346.86207	2679.65
351.04966	2700.85
355.23424	2740.15
359.4158	2765.85
363.59435	2806.65
367.76989	2824.85
371.94243	2858.85
376.11196	2891.45
380.27849	2925.85
384.44203	2956.25
388.60257	2978.55
392.76012	3010.35
396.91468	3028.95
401.06626	3070.75
405.21485	3083.15
409.36047	3086.35
413.50311	3074.95
417.64277	3068.65
421.77947	3082.45
425.9132	3084.75
430.04396	3090.85
434.17176	3107.75
438.2966	3105.95
442.41849	3120.45
446.53742	3159.55
450.6534	3167.45
454.76644	3192.35
458.87653	3216.75
462.98368	3223.95
467.08789	3234.55
471.18916	3247.05
475.2875	3251.55
479.38291	3265.25
483.4754	3320.55
487.56496	3363.95
491.6516	3416.25
495.73531	3458.25
499.81612	3457.15
503.89401	3444.55
507.96899	3400.45
512.04106	3367.95
516.11023	3358.75
520.1765	3353.75
524.23987	3370.95
528.30034	3378.45
532.35792	3392.95
536.41261	3372.75
540.46441	3336.55
544.51333	3288.45
548.55936	3251.95
552.60252	3237.65
556.64279	3238.35
560.6802	3236.65
564.71473	3240.35
568.7464	3265.05
572.7752	3290.05
576.80114	3289.55
580.82422	3329.95
584.84444	3358.65
588.86181	3385.75
592.87633	3436.95
596.888	3427.85
600.89682	3416.85
604.9028	3444.75
608.90594	3543.45
612.90624	3689.25
616.90371	3743.55
620.89834	3694.35
624.89015	3779.75
628.87913	3983.65
632.86528	4221.05
636.84862	4368.75
640.82913	4358.55
644.80683	4206.15
648.78172	4003.35
652.75379	3832.65
656.72306	3711.55
660.68952	3677.75
664.65319	3662.55
668.61405	3680.35
672.57211	3740.15
676.52738	3822.65
680.47986	3844.95
684.42955	3851.45
688.37646	3819.45
692.32058	3767.85
696.26192	3690.65
700.20048	3622.85
704.13626	3590.45
708.06928	3519.65
711.99952	3463.85
715.927	3424.55
719.85171	3414.45
723.77365	3415.55
727.69284	3430.95
731.60928	3415.95
735.52295	3375.05
739.43388	3343.55
743.34206	3323.65
747.24749	3320.75
751.15017	3326.15
755.05012	3338.35
758.94733	3357.05
762.8418	3375.75
766.73354	3439.35
770.62254	3477.25
774.50882	3498.95
778.39237	3458.65
782.27321	3382.55
786.15132	3329.35
790.02671	3297.05
793.89938	3294.35
797.76935	3292.75
801.6366	3346.15
805.50115	3400.05
809.36299	3489.55
813.22213	3526.75
817.07857	3517.05
820.93231	3410.75
824.78336	3307.65
828.63172	3199.65
832.47738	3145.95
836.32036	3114.25
840.16066	3112.15
843.99827	3094.75
847.8332	3072.75
851.66546	3078.85
855.49504	3087.65
859.32195	3104.05
863.1462	3105.95
866.96777	3152.15
870.78668	3182.75
874.60293	3223.95
878.41652	3275.05
882.22745	3320.45
886.03573	3358.55
889.84136	3392.05
893.64433	3349.25
897.44466	3261.75
901.24235	3177.55
905.0374	3106.35
908.8298	3045.55
912.61957	3018.25
916.40671	2989.45
920.19121	2984.15
923.97308	2973.95
927.75233	2987.15
931.52895	2978.25
935.30295	2969.15
939.07433	2974.65
942.84309	2953.85
946.60924	2947.95
950.37278	2921.65
954.13371	2920.15
957.89203	2905.75
961.64774	2885.55
965.40086	2898.35
969.15137	2883.05
972.89929	2853.85
976.64461	2850.05
980.38733	2831.95
984.12747	2839.65
987.86502	2843.45
991.59999	2840.05
995.33237	2865.95
999.06217	2905.55
1002.78939	2907.05
1006.51404	2945.85
1010.23611	2989.85
1013.95561	2998.85
1017.67255	3015.85
1021.38692	3005.35
1025.09872	2985.25
1028.80796	2951.25
1032.51465	2915.45
1036.21877	2886.45
1039.92035	2867.75
1043.61937	2860.85
1047.31584	2872.75
1051.00976	2877.95
1054.70114	2900.25
1058.38998	2895.45
1062.07627	2931.25
1065.76003	2955.55
1069.44126	2976.95
1073.11995	2985.55
1076.79611	3003.85
1080.46974	2970.95
1084.14085	2958.95
1087.80943	2898.25
1091.47549	2873.45
1095.13903	2860.95
1098.80005	2825.45
1102.45857	2823.95
1106.11456	2824.95
1109.76805	2852.35
1113.41903	2886.95
1117.06751	2972.15
1120.71348	3078.95
1124.35696	3247.45
1127.99793	3468.95
1131.63641	3649.35
1135.2724	3774.55
1138.90589	3796.15
1142.5369	3689.85
1146.16542	3534.75
1149.79145	3333.15
1153.415	3166.05
1157.03607	3029.45
1160.65467	2954.55
1164.27079	2905.85
1167.88443	2898.75
1171.49561	2904.85
1175.10432	2946.55
1178.71056	3015.45
1182.31434	3062.45
1185.91565	3116.65
1189.51451	3131.05
1193.11091	3159.15
1196.70485	3191.95
1200.29634	3211.55
1203.88538	3226.25
1207.47197	3213.05
1211.05612	3149.65
1214.63782	3088.25
1218.21708	3013.05
1221.79391	2928.35
1225.36829	2873.85
1228.94024	2851.75
1232.50976	2833.45
1236.07685	2827.35
1239.6415	2839.35
1243.20374	2842.55
1246.76355	2858.05
1250.32093	2877.25
1253.8759	2885.35
1257.42845	2909.75
1260.97859	2900.05
1264.52631	2912.95
1268.07163	2917.15
1271.61453	2923.85
1275.15503	2915.05
1278.69312	2898.05
1282.22882	2892.45
1285.76211	2895.25
1289.29301	2894.15
1292.82151	2919.95
1296.34761	2946.05
1299.87133	2995.05
1303.39266	3052.75
1306.9116	3126.25
1310.42815	3213.55
1313.94233	3273.95
1317.45412	3289.85
1320.96354	3273.35
1324.47058	3267.85
1327.97525	3248.25
1331.47754	3242.25
1334.97747	3248.25
1338.47502	3279.05
1341.97022	3329.75
1345.46305	3380.85
1348.95352	3448.95
1352.44163	3519.65
1355.92738	3617.05
1359.41078	3709.95
1362.89183	3809.05
1366.37053	3799.35
1369.84688	3683.35
1373.32088	3520.35
1376.79254	3410.55
1380.26186	3316.25
1383.72883	3254.15
1387.19347	3188.25
1390.65578	3139.25
1394.11575	3098.35
1397.57339	3053.05
1401.0287	3010.45
1404.48168	2980.45
1407.93234	2964.45
1411.38068	2920.25
1414.82669	2882.35
1418.27039	2832.65
1421.71177	2773.15
1425.15083	2734.85
1428.58758	2677.85
1432.02203	2636.15
1435.45416	2596.75
1438.88399	2574.95
1442.31151	2543.25
1445.73673	2530.35
1449.15965	2519.45
1452.58027	2531.15
1455.9986	2515.95
1459.41463	2516.55
1462.82837	2529.75
1466.23982	2549.15
1469.64898	2559.55
1473.05586	2564.95
1476.46045	2579.15
1479.86276	2580.55
1483.26279	2567.45
1486.66054	2586.35
1490.05602	2603.85
1493.44922	2615.95
1496.84016	2651.95
1500.22882	2703.55
1503.61521	2792.95
1506.99934	2861.45
1510.38121	2949.85
1513.76081	2972.75
1517.13816	2922.25
1520.51324	2840.45
1523.88607	2761.65
1527.25665	2710.15
1530.62498	2697.75
1533.99105	2705.15
1537.35488	2696.15
1540.71647	2727.15
1544.07581	2743.55
1547.4329	2757.45
1550.78776	2769.25
1554.14038	2772.35
1557.49077	2802.15
1560.83892	2800.15
1564.18484	2807.85
1567.52853	2824.85
1570.86999	2849.45
1574.20922	2877.25
1577.54624	2893.95
1580.88103	2891.15
1584.2136	2864.05
1587.54395	2832.45
1590.87208	2810.35
1594.19801	2794.05
1597.52172	2801.75
1600.84321	2830.75
1604.16251	2822.85
1607.47959	2803.05
1610.79447	2782.05
1614.10715	2764.35
1617.41763	2745.85
1620.7259	2725.55
1624.03199	2717.75
1627.33587	2717.95
1630.63757	2730.85
1633.93707	2752.95
1637.23439	2792.75
1640.52951	2850.95
1643.82246	2935.55
1647.11321	3004.65
1650.40179	3090.05
1653.68819	3106.75
1656.97241	3047.35
1660.25446	2987.65
1663.53433	2938.65
1666.81203	2914.95
1670.08756	2912.45
1673.36092	2924.55
1676.63211	2906.05
1679.90115	2905.35
1683.16801	2892.05
1686.43272	2853.75
1689.69527	2800.25
1692.95567	2757.15
1696.2139	2707.15
1699.46999	2633.55
1702.72392	2556.05
1705.97571	2485.75
1709.22535	2406.05
1712.47284	2361.85
1715.71819	2310.95
1718.96139	2272.45
1722.20246	2253.55
1725.44139	2209.25
1728.67818	2183.65
1731.91284	2163.35
1735.14537	2141.25
1738.37576	2135.55
1741.60403	2120.05
1744.83017	2099.85
1748.05418	2098.65
1751.27607	2111.25
1754.49584	2115.45
1757.71349	2135.45
1760.92903	2120.35
1764.14244	2103.25
1767.35375	2086.05
1770.56294	2049.75
1773.77002	2018.35
1776.97499	1986.15
1780.17785	1955.35
1783.37861	1919.85
1786.57727	1890.65
1789.77382	1865.75
1792.96828	1850.25
1796.16064	1831.05
1799.3509	1815.95
1802.53907	1798.05
1805.72514	1788.75
1808.90913	1782.75
1812.09102	1781.05
1815.27083	1763.45
1818.44856	1749.25
1821.6242	1755.45
1824.79776	1749.05
1827.96924	1751.45
1831.13864	1728.85
1834.30597	1725.15
1837.47122	1726.45
1840.6344	1713.45
1843.7955	1715.55
1846.95454	1710.55
1850.11151	1715.45
1853.26642	1705.95
1856.41926	1700.55
1859.57004	1697.95
1862.71876	1693.95
1865.86542	1694.65
1869.01003	1686.35
1872.15258	1680.65
1875.29308	1687.05
1878.43152	1671.65
1881.56792	1663.65
1884.70227	1654.85
1887.83457	1661.95
1890.96482	1651.85
1894.09304	1651.25
1897.21921	1652.35
1900.34335	1641.95
1903.46544	1647.05
1906.58551	1644.15
1909.70353	1636.65
1912.81953	1631.05
1915.93349	1631.65
1919.04543	1634.25
1922.15534	1618.75
1925.26322	1619.65
1928.36908	1607.55
1931.47292	1596.75
1934.57473	1600.15
1937.67453	1592.25
1940.77232	1592.85
1943.86808	1581.75
1946.96184	1580.45
1950.05358	1566.75
1953.14331	1567.45
1956.23103	1561.65
1959.31675	1550.65
1962.40046	1551.95
1965.48217	1547.65
1968.56188	1543.55
1971.63959	1529.95
1974.7153	1519.45
1977.78901	1517.35
1980.86073	1513.05
1983.93046	1507.95
1986.99819	1497.45
1990.06394	1502.25
1993.1277	1494.35
1996.18947	1490.75
1999.24925	1493.65
2002.30706	1476.45
2005.36288	1472.95
2008.41672	1455.85
2011.46859	1464.75
2014.51848	1449.95
2017.56639	1437.65
2020.61233	1440.95
2023.6563	1438.55
2026.6983	1434.65
2029.73833	1425.35
2032.7764	1420.45
2035.8125	1418.65
2038.84664	1416.75
2041.87881	1412.45
2044.90903	1397.65
2047.93729	1403.95
2050.96359	1401.15
2053.98794	1401.95
2057.01034	1395.25
2060.03078	1389.95
2063.04927	1394.05
2066.06582	1390.45
2069.08042	1391.45
2072.09307	1378.25
2075.10378	1387.35
2078.11255	1386.25
2081.11938	1371.55
2084.12426	1378.05
2087.12722	1377.05
2090.12824	1374.35
2093.12732	1371.35
2096.12447	1375.85
2099.11969	1369.75
2102.11299	1370.75
2105.10435	1365.05
2108.09379	1368.05
2111.08131	1371.75
2114.0669	1369.25
2117.05057	1377.45
2120.03233	1374.65
2123.01216	1370.75
2125.99008	1365.65
2128.96609	1364.05
2131.94018	1370.55
2134.91236	1370.35
2137.88263	1364.45
2140.851	1366.75
2143.81746	1365.85
2146.78201	1357.25
2149.74466	1365.25
2152.7054	1360.25
2155.66425	1363.05
2158.6212	1365.55
2161.57625	1362.65
2164.52941	1354.15
2167.48067	1360.35
2170.43004	1360.25
2173.37752	1352.75
2176.32311	1350.35
2179.26681	1353.85
2182.20863	1347.45
2185.14856	1352.25
2188.08661	1344.55
2191.02278	1338.65
2193.95707	1334.55
2196.88948	1339.45
2199.82001	1339.75
2202.74867	1327.95
2205.67545	1317.85
2208.60037	1318.45
2211.52341	1322.95
2214.44458	1311.35
2217.36388	1304.15
2220.28132	1316.25
2223.1969	1300.45
2226.11061	1299.55
2229.02246	1297.45
2231.93245	1288.65
2234.84058	1290.05
2237.74686	1279.95
2240.65128	1282.95
2243.55385	1279.15
2246.45456	1275.35
2249.35343	1277.45
2252.25044	1277.05
2255.14561	1276.45
2258.03893	1270.05
2260.93041	1275.85
2263.82004	1270.85
2266.70783	1266.85
2269.59378	1260.85
2272.4779	1248.65
2275.36017	1242.85
2278.24061	1238.85
2281.11922	1231.95
2283.996	1229.55
2286.87094	1236.85
2289.74405	1236.05
2292.61534	1222.95
2295.4848	1228.65
2298.35243	1218.85
2301.21824	1222.45
2304.08223	1217.95
2306.94439	1217.25
2309.80474	1210.35
2312.66327	1209.15
2315.51999	1208.75
2318.37489	1206.55
2321.22797	1204.45
2324.07925	1197.65
2326.92871	1207.65
2329.77637	1194.35
2332.62222	1190.35
2335.46626	1186.25
2338.3085	1187.25
2341.14893	1185.35
2343.98756	1177.75
2346.8244	1177.55
2349.65943	1166.45
2352.49267	1172.85
2355.32411	1180.95
2358.15376	1173.95
2360.98161	1168.25
2363.80768	1170.25
2366.63195	1161.65
2369.45444	1160.55
2372.27514	1155.25
2375.09405	1155.35
2377.91118	1156.85
2380.72652	1150.65
2383.54009	1149.35
2386.35187	1157.65
2389.16188	1138.05
2391.97011	1139.55
2394.77657	1135.95
2397.58125	1133.55
2400.38416	1141.55
2403.18529	1131.45
2405.98466	1129.25
2408.78226	1132.25
2411.57809	1119.95
2414.37216	1117.05
2417.16446	1120.85
2419.955	1119.85
2422.74378	1110.05
2425.5308	1109.55
2428.31606	1113.05
2431.09956	1106.85
2433.88131	1109.15
2436.6613	1107.75
2439.43954	1103.25
2442.21603	1090.45
2444.99077	1091.55
2447.76377	1094.95
2450.53501	1086.55
2453.30451	1095.05
2456.07226	1085.35
2458.83827	1094.25
2461.60254	1087.75
2464.36507	1080.55
2467.12586	1073.25
2469.88492	1078.15
2472.64224	1071.85
2475.39782	1078.45
2478.15167	1085.45
2480.90379	1068.35
2483.65417	1070.05
2486.40283	1061.45
2489.14976	1062.45
2491.89497	1074.75
2494.63845	1067.05
2497.3802	1066.95
2500.12024	1059.45
2502.85855	1051.35
2505.59514	1054.05
2508.33002	1057.15
2511.06318	1049.35
2513.79462	1048.75
2516.52435	1041.95
2519.25237	1042.55
2521.97867	1037.95
2524.70327	1046.95
2527.42616	1037.25
2530.14734	1039.55
2532.86681	1030.35
2535.58458	1027.95
2538.30065	1024.35
2541.01501	1027.45
2543.72768	1023.25
2546.43864	1020.65
2549.14791	1022.55
2551.85548	1020.85
2554.56136	1014.95
2557.26554	1011.65
2559.96803	1001.85
2562.66883	1003.65
2565.36794	1002.25
2568.06536	996.75
2570.7611	994.85
2573.45514	998.05
2576.14751	990.85
2578.83819	992.85
2581.52719	989.65
2584.21451	984.55
2586.90015	986.85
2589.58411	984.65
2592.2664	974.35
2594.94701	987.35
2597.62594	971.45
2600.30321	969.05
2602.9788	970.05
2605.65273	968.65
2608.32498	968.05
2610.99557	969.55
2613.66449	963.55
2616.33175	961.85
2618.99734	957.15
2621.66128	954.65
2624.32355	958.55
2626.98416	956.25
2629.64311	956.05
2632.30041	943.55
2634.95605	952.65
2637.61004	944.45
2640.26238	947.05
2642.91306	944.15
2645.56209	943.25
2648.20948	943.05
2650.85521	939.05
2653.4993	941.75
2656.14175	939.85
2658.78255	944.25
2661.42171	933.95
2664.05923	934.85
2666.6951	942.25
2669.32934	932.95
2671.96194	928.45
2674.59291	932.85
2677.22224	934.45
2679.84993	932.15
2682.476	925.75
2685.10043	928.85
2687.72324	930.15
2690.34441	928.45
2692.96396	926.75
2695.58188	930.05
2698.19818	930.35
2700.81285	928.35
2703.4259	943.55
2706.03733	977.35
2708.64714	952.55
2711.25533	932.05
2713.86191	931.55
2716.46687	939.85
2719.07021	930.35
2721.67194	931.35
2724.27206	919.95
2726.87057	928.85
2729.46747	926.85
2732.06276	921.75
2734.65644	925.85
2737.24852	923.55
2739.83899	923.65
2742.42786	921.65
2745.01513	914.75
2747.60079	920.35
2750.18486	915.45
2752.76733	907.85
2755.3482	917.65
2757.92747	907.25
2760.50515	903.95
2763.08123	904.95
2765.65573	902.85
2768.22863	904.35
2770.79994	894.65
2773.36967	905.85
2775.9378	899.95
2778.50435	891.35
2781.06932	893.25
2783.6327	896.65
2786.1945	893.75
2788.75471	889.65
2791.31335	894.85
2793.87041	887.45
2796.42589	881.65
2798.97979	875.65
2801.53212	874.95
2804.08288	882.05
2806.63206	878.55
2809.17967	877.55
2811.72571	878.05
2814.27018	881.05
2816.81308	877.15
2819.35442	878.05
2821.89419	876.45
2824.43239	871.65
2826.96904	872.85
2829.50412	871.25
2832.03763	870.75
2834.56959	871.05
2837.1	864.75
2839.62884	869.65
2842.15613	873.25
2844.68186	866.95
2847.20604	864.95
2849.72867	873.05
2852.24974	869.85
2854.76927	873.75
2857.28724	876.15
2859.80367	867.15
2862.31855	867.75
2864.83189	864.85
2867.34368	863.95
2869.85393	864.05
2872.36264	865.05
2874.8698	876.35
2877.37543	863.35
2879.87952	868.35
2882.38207	875.95
2884.88308	871.75
2887.38256	872.25
2889.88051	872.35
2892.37692	877.75
2894.8718	877.65
2897.36515	882.25
2899.85698	885.75
2902.34727	888.05
2904.83604	891.25
2907.32328	897.45
2909.809	902.45
2912.29319	898.25
2914.77587	900.75
2917.25702	906.75
2919.73665	914.55
2922.21476	914.55
2924.69136	915.35
2927.16644	915.45
2929.64	917.95
2932.11205	922.05
2934.58258	921.55
2937.05161	927.55
2939.51912	923.75
2941.98513	919.85
2944.44962	929.65
2946.91261	927.05
2949.37409	927.85
2951.83407	930.35
2954.29254	923.55
2956.74951	929.85
2959.20498	927.35
2961.65895	909.25
2964.11142	905.95
2966.56239	907.15
2969.01186	906.65
2971.45984	898.25
2973.90632	889.45
2976.35131	879.85
2978.7948	887.45
2981.23681	885.55
2983.67732	877.95
2986.11635	882.95
2988.55388	873.05
2990.98993	881.95
2993.4245	885.55
2995.85758	871.45
2998.28917	873.35
3000.71928	872.95
3003.14791	869.75
3005.57506	878.55
3008.00073	867.95
3010.42493	876.15
3012.84764	878.35
3015.26888	873.75
3017.68865	881.35
3020.10694	876.65
3022.52376	876.45
3024.9391	879.75
3027.35298	875.75
3029.76539	867.25
3032.17632	870.35
3034.5858	868.65
3036.9938	871.75
3039.40034	876.05
3041.80542	876.05
3044.20903	871.25
3046.61118	872.25
3049.01187	870.05
3051.4111	871.35
3053.80888	878.45
3056.20519	873.55
3058.60005	870.35
3060.99345	875.65
3063.3854	880.05
3065.7759	878.15
3068.16494	869.65
3070.55254	877.05
3072.93868	876.15
3075.32338	883.05
3077.70662	881.05
3080.08842	896.25
3082.46878	889.55
3084.84769	895.25
3087.22515	896.55
3089.60118	902.35
3091.97576	913.85
3094.3489	905.15
3096.72061	917.95
3099.09087	919.15
3101.4597	923.05
3103.82709	924.05
3106.19305	931.15
3108.55757	927.05
3110.92066	928.15
3113.28232	938.25
3115.64255	940.25
3118.00134	942.35
3120.35871	944.15
3122.71466	942.75
3125.06917	960.35
3127.42226	959.25
3129.77393	963.45
3132.12417	967.55
3134.47299	971.55
3136.82039	975.25
3139.16636	976.85
3141.51092	989.15
3143.85406	997.45
3146.19579	999.95
3148.53609	1012.35
3150.87499	1021.05
3153.21246	1020.35
3155.54853	1029.15
3157.88318	1040.35
3160.21642	1041.65
3162.54826	1044.55
3164.87868	1044.35
3167.2077	1052.45
3169.5353	1057.85
3171.86151	1054.85
3174.18631	1067.15
3176.5097	1074.85
3178.83169	1080.65
3181.15228	1076.15
3183.47147	1084.85
3185.78926	1083.25
3188.10565	1088.95
3190.42065	1101.75
3192.73424	1098.35
3195.04645	1104.95
3197.35725	1111.05
3199.66667	1114.75
3201.97469	1115.15
3204.28132	1124.35
3206.58656	1128.95
3208.8904	1128.75
3211.19287	1132.65
3213.49394	1139.75
3215.79363	1140.45
3218.09193	1147.85
3220.38884	1155.85
3222.68438	1163.55
3224.97853	1157.65
3227.2713	1164.75
3229.56269	1159.55
3231.8527	1164.45
3234.14133	1155.15
3236.42858	1153.25
3238.71446	1157.55
3240.99896	1159.75
3243.28209	1156.75
3245.56384	1159.65
3247.84423	1154.85
3250.12324	1157.35
3252.40088	1152.05
3254.67715	1161.95
3256.95205	1159.35
3259.22558	1160.45
3261.49775	1153.05
3263.76855	1162.95
3266.03799	1164.55
3268.30606	1153.55
3270.57277	1154.55
3272.83812	1151.25
3275.10211	1154.55
3277.36474	1156.95
3279.62601	1161.25
3281.88593	1157.35
3284.14448	1159.25
3286.40168	1157.65
3288.65753	1155.85
3290.91202	1155.25
3293.16516	1137.95
3295.41695	1149.05
3297.66738	1144.15
3299.91647	1144.85
3302.16421	1129.15
3304.4106	1128.95
3306.65564	1122.45
3308.89933	1125.35
3311.14169	1127.95
3313.38269	1114.25
3315.62236	1112.15
3317.86068	1101.45
3320.09766	1087.75
3322.3333	1110.95
3324.5676	1084.35
3326.80056	1076.35
3329.03219	1071.95
3331.26248	-0.75
3333.49143	0.25
3335.71905	0.65
