Data from AgNPs_FTO_APTES_UA_0.1mM_CRN_20uM_NaF_0.1M_Addition_RamanShift__15__12-14-27-596.txt Node

Date: Mon Dec 20 12:14:27 GMT 2021
User: TCL
Spectrometer: QEP01345
Trigger mode: 4
Integration Time (sec): 7.000000E0
Scans to average: 10
Electric dark correction enabled: true
Nonlinearity correction enabled: false
Boxcar width: 0
XAxis mode: Raman Shifts
Number of Pixels in Spectrum: 1044
>>>>>Begin Spectral Data<<<<<
46.04893	0.675
50.45542	-0.125
54.85868	-1.725
59.25871	1.975
63.6555	36.275
68.04907	37.275
72.43941	37.775
76.82654	42.575
81.21044	40.875
85.59113	47.475
89.96862	44.475
94.34289	44.375
98.71396	46.475
103.08183	48.475
107.4465	52.875
111.80798	52.675
116.16626	52.975
120.52136	58.675
124.87327	58.475
129.222	61.375
133.56755	64.175
137.90993	67.575
142.24913	74.275
146.58517	79.075
150.91804	94.275
155.24774	111.975
159.57429	132.075
163.89768	173.875
168.21792	227.975
172.53501	293.575
176.84895	407.975
181.15975	568.075
185.46741	799.275
189.77193	1103.275
194.07331	1487.275
198.37157	1932.075
202.6667	2405.275
206.9587	2875.375
211.24758	3352.175
215.53334	3827.275
219.81599	4338.275
224.09553	4842.675
228.37195	5450.975
232.64527	6087.875
236.91549	6753.775
241.18261	7447.775
245.44663	8088.975
249.70755	8645.475
253.96539	9115.375
258.22014	9503.475
262.4718	9730.675
266.72039	9862.275
270.96589	9851.775
275.20832	9737.275
279.44768	9556.175
283.68397	9339.975
287.91719	9133.975
292.14735	8969.975
296.37445	8834.575
300.59849	8762.375
304.81948	8725.475
309.03742	8651.375
313.25231	8585.675
317.46415	8513.875
321.67296	8356.675
325.87872	8252.275
330.08145	8215.375
334.28114	8211.275
338.47781	8264.275
342.67145	8330.575
346.86207	8415.875
351.04966	8530.675
355.23424	8660.875
359.4158	8786.875
363.59435	8884.475
367.76989	8985.375
371.94243	9086.375
376.11196	9156.175
380.27849	9208.775
384.44203	9294.375
388.60257	9377.675
392.76012	9440.275
396.91468	9556.075
401.06626	9668.875
405.21485	9764.875
409.36047	9786.275
413.50311	9734.675
417.64277	9672.975
421.77947	9614.375
425.9132	9644.575
430.04396	9668.375
434.17176	9681.575
438.2966	9734.675
442.41849	9757.275
446.53742	9827.975
450.6534	9940.775
454.76644	10018.875
458.87653	10070.875
462.98368	10107.375
467.08789	10101.375
471.18916	10147.475
475.2875	10169.275
479.38291	10176.975
483.4754	10232.975
487.56496	10287.675
491.6516	10370.775
495.73531	10404.875
499.81612	10475.675
503.89401	10548.675
507.96899	10530.275
512.04106	10533.575
516.11023	10465.975
520.1765	10437.775
524.23987	10418.975
528.30034	10352.975
532.35792	10329.975
536.41261	10290.575
540.46441	10223.075
544.51333	10190.875
548.55936	10165.175
552.60252	10199.775
556.64279	10274.075
560.6802	10323.575
564.71473	10341.575
568.7464	10396.675
572.7752	10427.175
576.80114	10454.275
580.82422	10445.875
584.84444	10510.675
588.86181	10541.875
592.87633	10598.575
596.888	10591.175
600.89682	10651.875
604.9028	10854.275
608.90594	11398.975
612.90624	12122.175
616.90371	12040.675
620.89834	11246.975
624.89015	10940.375
628.87913	11047.175
632.86528	11332.775
636.84862	11574.675
640.82913	11631.375
644.80683	11497.375
648.78172	11308.775
652.75379	11153.975
656.72306	11081.175
660.68952	11105.875
664.65319	11069.475
668.61405	11063.475
672.57211	11069.075
676.52738	11132.875
680.47986	11151.475
684.42955	11134.775
688.37646	11127.175
692.32058	11103.175
696.26192	11034.175
700.20048	11016.375
704.13626	10958.475
708.06928	10886.175
711.99952	10778.475
715.927	10682.675
719.85171	10601.575
723.77365	10622.675
727.69284	10585.775
731.60928	10548.175
735.52295	10478.775
739.43388	10493.775
743.34206	10509.675
747.24749	10531.875
751.15017	10572.575
755.05012	10629.175
758.94733	10694.575
762.8418	10866.475
766.73354	11163.175
770.62254	11502.775
774.50882	11675.075
778.39237	11525.375
782.27321	11188.675
786.15132	10834.775
790.02671	10627.975
793.89938	10555.275
797.76935	10536.275
801.6366	10571.475
805.50115	10626.775
809.36299	10699.675
813.22213	10769.575
817.07857	10717.675
820.93231	10570.075
824.78336	10445.275
828.63172	10318.475
832.47738	10267.675
836.32036	10217.575
840.16066	10201.775
843.99827	10207.675
847.8332	10199.975
851.66546	10183.075
855.49504	10196.275
859.32195	10203.075
863.1462	10227.475
866.96777	10257.875
870.78668	10277.675
874.60293	10339.375
878.41652	10401.275
882.22745	10470.475
886.03573	10518.775
889.84136	10514.075
893.64433	10488.975
897.44466	10405.875
901.24235	10339.875
905.0374	10269.475
908.8298	10200.575
912.61957	10197.775
916.40671	10158.375
920.19121	10132.775
923.97308	10171.175
927.75233	10134.775
931.52895	10137.275
935.30295	10063.575
939.07433	10011.575
942.84309	9964.975
946.60924	9929.675
950.37278	9920.575
954.13371	9901.775
957.89203	9870.975
961.64774	9879.975
965.40086	9832.275
969.15137	9815.875
972.89929	9812.475
976.64461	9816.875
980.38733	9772.675
984.12747	9795.475
987.86502	9783.675
991.59999	9819.975
995.33237	9864.975
999.06217	9892.975
1002.78939	9947.075
1006.51404	10002.975
1010.23611	10064.975
1013.95561	10125.675
1017.67255	10125.275
1021.38692	10131.175
1025.09872	10083.975
1028.80796	10035.975
1032.51465	9969.875
1036.21877	9966.775
1039.92035	9973.975
1043.61937	9975.475
1047.31584	9963.875
1051.00976	9978.175
1054.70114	10005.075
1058.38998	10027.475
1062.07627	10077.975
1065.76003	10143.475
1069.44126	10180.775
1073.11995	10258.275
1076.79611	10306.675
1080.46974	10333.975
1084.14085	10311.875
1087.80943	10288.275
1091.47549	10298.075
1095.13903	10285.475
1098.80005	10234.875
1102.45857	10200.875
1106.11456	10138.375
1109.76805	10150.875
1113.41903	10191.875
1117.06751	10317.875
1120.71348	10500.075
1124.35696	10747.575
1127.99793	11059.575
1131.63641	11302.075
1135.2724	11390.775
1138.90589	11368.975
1142.5369	11261.375
1146.16542	11071.775
1149.79145	10869.675
1153.415	10639.675
1157.03607	10442.875
1160.65467	10322.575
1164.27079	10288.275
1167.88443	10340.775
1171.49561	10450.875
1175.10432	10665.675
1178.71056	11006.775
1182.31434	11300.675
1185.91565	11439.875
1189.51451	11481.275
1193.11091	11445.275
1196.70485	11364.075
1200.29634	11296.075
1203.88538	11240.975
1207.47197	11125.475
1211.05612	10985.475
1214.63782	10891.775
1218.21708	10783.375
1221.79391	10669.075
1225.36829	10561.775
1228.94024	10506.075
1232.50976	10478.975
1236.07685	10447.275
1239.6415	10420.075
1243.20374	10455.175
1246.76355	10473.775
1250.32093	10521.075
1253.8759	10569.975
1257.42845	10645.375
1260.97859	10708.775
1264.52631	10787.175
1268.07163	10838.375
1271.61453	10898.375
1275.15503	10900.675
1278.69312	10949.675
1282.22882	10956.275
1285.76211	11004.475
1289.29301	11072.875
1292.82151	11181.875
1296.34761	11339.075
1299.87133	11535.775
1303.39266	11740.975
1306.9116	12057.175
1310.42815	12366.275
1313.94233	12576.575
1317.45412	12623.175
1320.96354	12518.675
1324.47058	12392.475
1327.97525	12222.175
1331.47754	12126.475
1334.97747	12033.775
1338.47502	12085.275
1341.97022	12208.975
1345.46305	12414.375
1348.95352	12631.275
1352.44163	12841.675
1355.92738	13077.675
1359.41078	13428.175
1362.89183	13800.575
1366.37053	13758.275
1369.84688	13115.575
1373.32088	12404.375
1376.79254	11885.475
1380.26186	11595.975
1383.72883	11443.775
1387.19347	11302.175
1390.65578	11174.175
1394.11575	11053.275
1397.57339	10915.975
1401.0287	10798.375
1404.48168	10694.175
1407.93234	10595.775
1411.38068	10493.375
1414.82669	10373.675
1418.27039	10266.075
1421.71177	10125.875
1425.15083	9995.875
1428.58758	9926.075
1432.02203	9862.275
1435.45416	9844.875
1438.88399	9860.375
1442.31151	9868.975
1445.73673	9866.875
1449.15965	9887.675
1452.58027	9900.875
1455.9986	9917.675
1459.41463	9962.775
1462.82837	10033.275
1466.23982	10113.975
1469.64898	10203.375
1473.05586	10278.675
1476.46045	10308.175
1479.86276	10323.575
1483.26279	10372.175
1486.66054	10404.575
1490.05602	10461.775
1493.44922	10556.875
1496.84016	10718.075
1500.22882	11032.975
1503.61521	11427.675
1506.99934	11856.075
1510.38121	12198.575
1513.76081	12283.775
1517.13816	12068.775
1520.51324	11667.075
1523.88607	11286.875
1527.25665	11011.775
1530.62498	10879.575
1533.99105	10809.875
1537.35488	10793.575
1540.71647	10780.175
1544.07581	10768.875
1547.4329	10763.275
1550.78776	10795.175
1554.14038	10822.775
1557.49077	10869.075
1560.83892	10882.475
1564.18484	10934.875
1567.52853	11002.575
1570.86999	11059.375
1574.20922	11157.875
1577.54624	11161.775
1580.88103	11076.875
1584.2136	10900.975
1587.54395	10821.175
1590.87208	10791.975
1594.19801	10841.475
1597.52172	11006.675
1600.84321	11090.275
1604.16251	11049.775
1607.47959	10922.875
1610.79447	10776.875
1614.10715	10584.475
1617.41763	10394.675
1620.7259	10244.675
1624.03199	10140.175
1627.33587	10106.875
1630.63757	10144.075
1633.93707	10239.275
1637.23439	10414.275
1640.52951	10678.875
1643.82246	11065.075
1647.11321	11438.875
1650.40179	11694.575
1653.68819	11638.975
1656.97241	11284.975
1660.25446	10774.775
1663.53433	10414.575
1666.81203	10162.575
1670.08756	9988.375
1673.36092	9885.075
1676.63211	9821.275
1679.90115	9742.275
1683.16801	9623.175
1686.43272	9484.475
1689.69527	9385.575
1692.95567	9267.175
1696.2139	9155.675
1699.46999	9067.475
1702.72392	9007.975
1705.97571	8917.675
1709.22535	8846.075
1712.47284	8816.975
1715.71819	8775.775
1718.96139	8736.375
1722.20246	8662.975
1725.44139	8632.775
1728.67818	8553.875
1731.91284	8476.375
1735.14537	8418.375
1738.37576	8367.675
1741.60403	8331.775
1744.83017	8278.075
1748.05418	8235.675
1751.27607	8216.275
1754.49584	8208.075
1757.71349	8211.975
1760.92903	8206.875
1764.14244	8176.475
1767.35375	8162.275
1770.56294	8141.175
1773.77002	8096.975
1776.97499	8071.375
1780.17785	8020.075
1783.37861	8034.475
1786.57727	7984.975
1789.77382	7951.675
1792.96828	7925.575
1796.16064	7886.275
1799.3509	7869.775
1802.53907	7850.275
1805.72514	7822.175
1808.90913	7800.975
1812.09102	7812.675
1815.27083	7762.575
1818.44856	7758.575
1821.6242	7733.475
1824.79776	7725.075
1827.96924	7713.475
1831.13864	7703.375
1834.30597	7702.975
1837.47122	7673.375
1840.6344	7668.175
1843.7955	7664.775
1846.95454	7656.275
1850.11151	7642.775
1853.26642	7642.575
1856.41926	7623.175
1859.57004	7625.975
1862.71876	7612.475
1865.86542	7618.875
1869.01003	7602.775
1872.15258	7583.775
1875.29308	7582.575
1878.43152	7546.575
1881.56792	7547.275
1884.70227	7543.475
1887.83457	7531.375
1890.96482	7536.975
1894.09304	7509.575
1897.21921	7492.375
1900.34335	7495.875
1903.46544	7503.975
1906.58551	7485.075
1909.70353	7458.375
1912.81953	7443.175
1915.93349	7431.275
1919.04543	7421.375
1922.15534	7387.175
1925.26322	7391.975
1928.36908	7363.475
1931.47292	7354.975
1934.57473	7325.475
1937.67453	7330.075
1940.77232	7289.775
1943.86808	7294.075
1946.96184	7267.975
1950.05358	7251.975
1953.14331	7199.375
1956.23103	7216.675
1959.31675	7194.175
1962.40046	7178.775
1965.48217	7133.975
1968.56188	7134.375
1971.63959	7103.375
1974.7153	7074.775
1977.78901	7052.075
1980.86073	7033.475
1983.93046	7023.075
1986.99819	6989.075
1990.06394	6971.575
1993.1277	6934.875
1996.18947	6921.475
1999.24925	6908.075
2002.30706	6892.775
2005.36288	6848.675
2008.41672	6848.875
2011.46859	6837.575
2014.51848	6806.475
2017.56639	6781.375
2020.61233	6759.875
2023.6563	6749.375
2026.6983	6721.975
2029.73833	6730.375
2032.7764	6694.375
2035.8125	6684.875
2038.84664	6656.475
2041.87881	6650.875
2044.90903	6656.175
2047.93729	6626.875
2050.96359	6634.575
2053.98794	6621.475
2057.01034	6601.175
2060.03078	6593.575
2063.04927	6585.275
2066.06582	6580.475
2069.08042	6581.675
2072.09307	6586.875
2075.10378	6581.875
2078.11255	6564.675
2081.11938	6554.975
2084.12426	6563.075
2087.12722	6552.075
2090.12824	6532.075
2093.12732	6529.475
2096.12447	6556.575
2099.11969	6543.875
2102.11299	6558.175
2105.10435	6552.475
2108.09379	6538.475
2111.08131	6543.475
2114.0669	6552.775
2117.05057	6549.775
2120.03233	6573.175
2123.01216	6558.375
2125.99008	6567.975
2128.96609	6567.675
2131.94018	6573.775
2134.91236	6573.875
2137.88263	6588.575
2140.851	6580.675
2143.81746	6583.875
2146.78201	6583.875
2149.74466	6580.875
2152.7054	6574.575
2155.66425	6575.775
2158.6212	6609.175
2161.57625	6590.175
2164.52941	6581.175
2167.48067	6580.875
2170.43004	6585.075
2173.37752	6592.875
2176.32311	6573.975
2179.26681	6558.375
2182.20863	6557.875
2185.14856	6557.275
2188.08661	6553.775
2191.02278	6533.875
2193.95707	6539.075
2196.88948	6533.975
2199.82001	6524.875
2202.74867	6516.475
2205.67545	6507.575
2208.60037	6508.475
2211.52341	6491.075
2214.44458	6487.775
2217.36388	6449.275
2220.28132	6461.475
2223.1969	6411.275
2226.11061	6424.075
2229.02246	6393.375
2231.93245	6374.475
2234.84058	6368.675
2237.74686	6356.675
2240.65128	6363.875
2243.55385	6362.675
2246.45456	6346.675
2249.35343	6319.975
2252.25044	6329.675
2255.14561	6313.475
2258.03893	6308.175
2260.93041	6305.475
2263.82004	6291.775
2266.70783	6258.575
2269.59378	6263.475
2272.4779	6234.875
2275.36017	6230.075
2278.24061	6221.675
2281.11922	6205.375
2283.996	6194.575
2286.87094	6174.375
2289.74405	6179.275
2292.61534	6145.875
2295.4848	6147.075
2298.35243	6137.175
2301.21824	6123.875
2304.08223	6118.975
2306.94439	6118.375
2309.80474	6112.775
2312.66327	6102.675
2315.51999	6094.475
2318.37489	6102.875
2321.22797	6088.075
2324.07925	6063.675
2326.92871	6061.275
2329.77637	6047.275
2332.62222	6030.475
2335.46626	5998.575
2338.3085	6010.575
2341.14893	6036.875
2343.98756	6016.175
2346.8244	6000.075
2349.65943	5993.475
2352.49267	5986.675
2355.32411	5976.675
2358.15376	5967.075
2360.98161	5972.375
2363.80768	5962.275
2366.63195	5952.675
2369.45444	5942.175
2372.27514	5943.975
2375.09405	5941.475
2377.91118	5908.475
2380.72652	5903.675
2383.54009	5902.275
2386.35187	5896.075
2389.16188	5876.675
2391.97011	5872.975
2394.77657	5860.475
2397.58125	5833.675
2400.38416	5844.975
2403.18529	5819.175
2405.98466	5810.775
2408.78226	5789.175
2411.57809	5780.675
2414.37216	5762.475
2417.16446	5768.975
2419.955	5761.275
2422.74378	5772.475
2425.5308	5761.575
2428.31606	5746.075
2431.09956	5733.075
2433.88131	5721.775
2436.6613	5725.975
2439.43954	5722.575
2442.21603	5715.275
2444.99077	5715.775
2447.76377	5701.975
2450.53501	5708.475
2453.30451	5680.275
2456.07226	5688.375
2458.83827	5681.775
2461.60254	5670.075
2464.36507	5667.775
2467.12586	5664.375
2469.88492	5653.275
2472.64224	5635.575
2475.39782	5636.875
2478.15167	5636.175
2480.90379	5620.875
2483.65417	5621.575
2486.40283	5604.375
2489.14976	5613.675
2491.89497	5597.975
2494.63845	5609.675
2497.3802	5597.075
2500.12024	5581.675
2502.85855	5586.675
2505.59514	5584.175
2508.33002	5579.375
2511.06318	5557.075
2513.79462	5552.075
2516.52435	5529.975
2519.25237	5518.075
2521.97867	5529.075
2524.70327	5514.175
2527.42616	5507.875
2530.14734	5520.275
2532.86681	5472.675
2535.58458	5482.975
2538.30065	5486.075
2541.01501	5485.875
2543.72768	5462.275
2546.43864	5453.075
2549.14791	5457.175
2551.85548	5420.375
2554.56136	5417.175
2557.26554	5403.475
2559.96803	5399.375
2562.66883	5399.475
2565.36794	5379.475
2568.06536	5372.375
2570.7611	5360.075
2573.45514	5347.575
2576.14751	5353.175
2578.83819	5330.775
2581.52719	5326.775
2584.21451	5309.175
2586.90015	5303.375
2589.58411	5279.275
2592.2664	5280.675
2594.94701	5270.575
2597.62594	5269.275
2600.30321	5234.975
2602.9788	5241.875
2605.65273	5238.875
2608.32498	5212.975
2610.99557	5214.975
2613.66449	5201.675
2616.33175	5178.075
2618.99734	5193.775
2621.66128	5188.375
2624.32355	5185.375
2626.98416	5180.975
2629.64311	5161.275
2632.30041	5156.175
2634.95605	5154.975
2637.61004	5137.975
2640.26238	5134.575
2642.91306	5131.975
2645.56209	5134.975
2648.20948	5131.675
2650.85521	5126.675
2653.4993	5123.275
2656.14175	5097.175
2658.78255	5101.875
2661.42171	5093.975
2664.05923	5097.075
2666.6951	5086.575
2669.32934	5098.375
2671.96194	5085.375
2674.59291	5106.875
2677.22224	5093.075
2679.84993	5080.075
2682.476	5075.975
2685.10043	5102.375
2687.72324	5096.175
2690.34441	5085.375
2692.96396	5087.475
2695.58188	5108.275
2698.19818	5103.975
2700.81285	5110.375
2703.4259	5104.775
2706.03733	5135.575
2708.64714	5111.475
2711.25533	5099.175
2713.86191	5093.975
2716.46687	5109.175
2719.07021	5104.975
2721.67194	5081.975
2724.27206	5073.975
2726.87057	5088.775
2729.46747	5079.075
2732.06276	5068.375
2734.65644	5073.275
2737.24852	5077.775
2739.83899	5071.075
2742.42786	5050.375
2745.01513	5036.375
2747.60079	5059.675
2750.18486	5025.675
2752.76733	5020.175
2755.3482	5014.675
2757.92747	5022.575
2760.50515	4999.575
2763.08123	5006.175
2765.65573	4995.575
2768.22863	5000.175
2770.79994	4959.275
2773.36967	4987.675
2775.9378	4965.675
2778.50435	4948.775
2781.06932	4956.075
2783.6327	4951.375
2786.1945	4934.075
2788.75471	4927.675
2791.31335	4920.075
2793.87041	4903.075
2796.42589	4884.875
2798.97979	4882.875
2801.53212	4873.275
2804.08288	4863.575
2806.63206	4860.075
2809.17967	4833.975
2811.72571	4825.975
2814.27018	4830.075
2816.81308	4813.975
2819.35442	4806.575
2821.89419	4787.375
2824.43239	4799.075
2826.96904	4778.375
2829.50412	4787.975
2832.03763	4768.075
2834.56959	4781.975
2837.1	4781.175
2839.62884	4767.475
2842.15613	4759.575
2844.68186	4752.775
2847.20604	4756.975
2849.72867	4761.375
2852.24974	4762.075
2854.76927	4763.475
2857.28724	4746.975
2859.80367	4733.175
2862.31855	4715.275
2864.83189	4728.775
2867.34368	4707.075
2869.85393	4722.875
2872.36264	4711.675
2874.8698	4727.475
2877.37543	4701.075
2879.87952	4708.375
2882.38207	4715.075
2884.88308	4707.475
2887.38256	4709.375
2889.88051	4706.175
2892.37692	4708.575
2894.8718	4699.975
2897.36515	4715.775
2899.85698	4709.275
2902.34727	4715.375
2904.83604	4718.475
2907.32328	4717.475
2909.809	4711.775
2912.29319	4718.675
2914.77587	4716.075
2917.25702	4722.175
2919.73665	4707.075
2922.21476	4701.175
2924.69136	4717.575
2927.16644	4697.675
2929.64	4700.575
2932.11205	4708.575
2934.58258	4713.175
2937.05161	4696.475
2939.51912	4696.875
2941.98513	4713.275
2944.44962	4675.475
2946.91261	4669.375
2949.37409	4679.575
2951.83407	4682.575
2954.29254	4681.775
2956.74951	4665.375
2959.20498	4682.275
2961.65895	4652.775
2964.11142	4663.775
2966.56239	4654.275
2969.01186	4652.475
2971.45984	4651.275
2973.90632	4645.175
2976.35131	4633.875
2978.7948	4617.075
2981.23681	4621.175
2983.67732	4619.175
2986.11635	4596.575
2988.55388	4599.575
2990.98993	4595.175
2993.4245	4590.575
2995.85758	4582.275
2998.28917	4559.775
3000.71928	4569.575
3003.14791	4568.175
3005.57506	4563.675
3008.00073	4553.875
3010.42493	4553.775
3012.84764	4543.875
3015.26888	4535.675
3017.68865	4519.575
3020.10694	4519.475
3022.52376	4532.875
3024.9391	4520.775
3027.35298	4508.075
3029.76539	4524.875
3032.17632	4517.875
3034.5858	4496.575
3036.9938	4499.875
3039.40034	4488.875
3041.80542	4488.775
3044.20903	4473.075
3046.61118	4482.675
3049.01187	4474.175
3051.4111	4474.975
3053.80888	4468.275
3056.20519	4469.875
3058.60005	4453.275
3060.99345	4446.375
3063.3854	4445.075
3065.7759	4442.075
3068.16494	4438.975
3070.55254	4428.375
3072.93868	4435.475
3075.32338	4419.275
3077.70662	4418.275
3080.08842	4427.575
3082.46878	4418.875
3084.84769	4420.375
3087.22515	4416.575
3089.60118	4431.375
3091.97576	4426.675
3094.3489	4438.775
3096.72061	4437.475
3099.09087	4437.375
3101.4597	4430.775
3103.82709	4449.475
3106.19305	4435.475
3108.55757	4423.675
3110.92066	4415.375
3113.28232	4410.675
3115.64255	4409.375
3118.00134	4410.775
3120.35871	4398.475
3122.71466	4406.575
3125.06917	4409.475
3127.42226	4402.075
3129.77393	4393.175
3132.12417	4401.675
3134.47299	4406.775
3136.82039	4395.375
3139.16636	4411.375
3141.51092	4432.375
3143.85406	4428.175
3146.19579	4428.375
3148.53609	4445.775
3150.87499	4447.675
3153.21246	4458.375
3155.54853	4472.875
3157.88318	4472.975
3160.21642	4456.475
3162.54826	4481.375
3164.87868	4462.575
3167.2077	4488.075
3169.5353	4476.075
3171.86151	4461.475
3174.18631	4485.575
3176.5097	4488.875
3178.83169	4486.275
3181.15228	4477.575
3183.47147	4475.075
3185.78926	4481.475
3188.10565	4472.175
3190.42065	4485.875
3192.73424	4483.875
3195.04645	4479.075
3197.35725	4475.275
3199.66667	4487.075
3201.97469	4502.175
3204.28132	4512.075
3206.58656	4518.575
3208.8904	4528.875
3211.19287	4526.775
3213.49394	4526.975
3215.79363	4520.375
3218.09193	4540.475
3220.38884	4535.275
3222.68438	4544.075
3224.97853	4509.775
3227.2713	4530.475
3229.56269	4525.475
3231.8527	4514.875
3234.14133	4498.775
3236.42858	4515.475
3238.71446	4505.075
3240.99896	4485.375
3243.28209	4502.175
3245.56384	4492.675
3247.84423	4508.075
3250.12324	4496.775
3252.40088	4487.475
3254.67715	4487.475
3256.95205	4482.275
3259.22558	4478.475
3261.49775	4478.675
3263.76855	4483.675
3266.03799	4467.075
3268.30606	4456.175
3270.57277	4439.475
3272.83812	4441.575
3275.10211	4434.575
3277.36474	4418.375
3279.62601	4428.775
3281.88593	4426.975
3284.14448	4436.475
3286.40168	4429.975
3288.65753	4413.675
3290.91202	4410.675
3293.16516	4393.275
3295.41695	4382.175
3297.66738	4368.875
3299.91647	4340.075
3302.16421	4320.075
3304.4106	4312.975
3306.65564	4308.775
3308.89933	4279.075
3311.14169	4266.975
3313.38269	4238.875
3315.62236	4219.375
3317.86068	4153.475
3320.09766	4120.675
3322.3333	4111.875
3324.5676	4109.975
3326.80056	4040.475
3329.03219	4023.375
3331.26248	0.275
3333.49143	0.375
3335.71905	-0.325
