Data from AgNPs_FTO_APTES_UA_0.1mM_CRN_1000uM_NaF_0.1M_Addition_RamanShift__9__15-24-37-810.txt Node

Date: Mon Dec 20 15:24:37 GMT 2021
User: TCL
Spectrometer: QEP01345
Trigger mode: 4
Integration Time (sec): 7.000000E0
Scans to average: 10
Electric dark correction enabled: true
Nonlinearity correction enabled: false
Boxcar width: 0
XAxis mode: Raman Shifts
Number of Pixels in Spectrum: 1044
>>>>>Begin Spectral Data<<<<<
46.04893	0.6
50.45542	0.3
54.85868	-0.5
59.25871	1.2
63.6555	23.4
68.04907	27.1
72.43941	26.5
76.82654	28.8
81.21044	29.4
85.59113	31.7
89.96862	30.9
94.34289	33.5
98.71396	34
103.08183	33.8
107.4465	34.6
111.80798	36.4
116.16626	37.1
120.52136	35.1
124.87327	40.9
129.222	39
133.56755	38.5
137.90993	44
142.24913	44.3
146.58517	44.5
150.91804	52.9
155.24774	60.7
159.57429	66.1
163.89768	81.6
168.21792	105.8
172.53501	133.2
176.84895	176.8
181.15975	245.6
185.46741	335.8
189.77193	463
194.07331	609.4
198.37157	799.7
202.6667	995.8
206.9587	1203.7
211.24758	1398.9
215.53334	1611.5
219.81599	1837.9
224.09553	2083
228.37195	2372.9
232.64527	2691.2
236.91549	2986.4
241.18261	3295.6
245.44663	3534.5
249.70755	3732.2
253.96539	3866.7
258.22014	3930.1
262.4718	3954.2
266.72039	3926
270.96589	3887.5
275.20832	3811.1
279.44768	3718.3
283.68397	3634
287.91719	3559.8
292.14735	3493.4
296.37445	3421.1
300.59849	3387.7
304.81948	3331.6
309.03742	3315.4
313.25231	3275.1
317.46415	3236.4
321.67296	3184.7
325.87872	3154.9
330.08145	3160.3
334.28114	3131.3
338.47781	3114.7
342.67145	3131
346.86207	3142.2
351.04966	3168.6
355.23424	3205.7
359.4158	3234.4
363.59435	3260
367.76989	3305.1
371.94243	3340.5
376.11196	3370.1
380.27849	3411.5
384.44203	3459.3
388.60257	3483.1
392.76012	3514
396.91468	3556
401.06626	3565.6
405.21485	3592.3
409.36047	3597.1
413.50311	3592.2
417.64277	3587.9
421.77947	3599.6
425.9132	3598.6
430.04396	3593.1
434.17176	3620.9
438.2966	3612.3
442.41849	3628.9
446.53742	3635.9
450.6534	3659.1
454.76644	3687.8
458.87653	3701.6
462.98368	3723.2
467.08789	3735
471.18916	3749.4
475.2875	3772.3
479.38291	3810
483.4754	3871
487.56496	3958.2
491.6516	4068
495.73531	4170.8
499.81612	4205.1
503.89401	4180.9
507.96899	4109.3
512.04106	4056.4
516.11023	4005.4
520.1765	4009.5
524.23987	4020.5
528.30034	4037.2
532.35792	4061.7
536.41261	4033.9
540.46441	3995.5
544.51333	3931
548.55936	3875.3
552.60252	3839.9
556.64279	3790.5
560.6802	3783.1
564.71473	3790.9
568.7464	3793.8
572.7752	3815
576.80114	3844.7
580.82422	3889.5
584.84444	3982.3
588.86181	4050.5
592.87633	4103.4
596.888	4111.6
600.89682	4056.5
604.9028	4047.4
608.90594	4112.6
612.90624	4243.2
616.90371	4293.6
620.89834	4343.9
624.89015	4540.3
628.87913	4889.6
632.86528	5318.5
636.84862	5632
640.82913	5687.6
644.80683	5490.8
648.78172	5142.4
652.75379	4815.2
656.72306	4555.6
660.68952	4385.7
664.65319	4293.5
668.61405	4230.7
672.57211	4225
676.52738	4270.7
680.47986	4320.5
684.42955	4333.6
688.37646	4289.9
692.32058	4207.1
696.26192	4095.2
700.20048	4054
704.13626	3994
708.06928	3988.8
711.99952	3961.4
715.927	3958.8
719.85171	3998
723.77365	4030.1
727.69284	4080.5
731.60928	4078.1
735.52295	4005.4
739.43388	3928.8
743.34206	3898
747.24749	3895.3
751.15017	3897.6
755.05012	3896.2
758.94733	3917.1
762.8418	3935.2
766.73354	3993.5
770.62254	4019
774.50882	4017
778.39237	3963.8
782.27321	3891.9
786.15132	3825.4
790.02671	3797.2
793.89938	3790.6
797.76935	3828.7
801.6366	3877.7
805.50115	4002.5
809.36299	4198.4
813.22213	4331.6
817.07857	4337.5
820.93231	4205.4
824.78336	4024
828.63172	3861.8
832.47738	3728.5
836.32036	3664.7
840.16066	3652.3
843.99827	3626
847.8332	3632.2
851.66546	3620.4
855.49504	3630
859.32195	3641.2
863.1462	3649.9
866.96777	3690.4
870.78668	3741.9
874.60293	3830.6
878.41652	3934.7
882.22745	4061.9
886.03573	4139.2
889.84136	4208.7
893.64433	4177.8
897.44466	4044.5
901.24235	3887.4
905.0374	3744.7
908.8298	3647
912.61957	3591.1
916.40671	3532.6
920.19121	3514.2
923.97308	3500.1
927.75233	3478.1
931.52895	3476.7
935.30295	3459.9
939.07433	3451.7
942.84309	3439.9
946.60924	3434.1
950.37278	3411.6
954.13371	3399.6
957.89203	3399.9
961.64774	3392.6
965.40086	3396.6
969.15137	3371.7
972.89929	3362.1
976.64461	3358
980.38733	3356.5
984.12747	3353.6
987.86502	3354.1
991.59999	3369.9
995.33237	3398.7
999.06217	3435.1
1002.78939	3463.3
1006.51404	3513.9
1010.23611	3567.9
1013.95561	3612.4
1017.67255	3636.1
1021.38692	3640.8
1025.09872	3631.5
1028.80796	3590.9
1032.51465	3540.4
1036.21877	3500.2
1039.92035	3444.2
1043.61937	3420.8
1047.31584	3400.6
1051.00976	3397.6
1054.70114	3417.7
1058.38998	3440.3
1062.07627	3480.9
1065.76003	3533.9
1069.44126	3581.5
1073.11995	3627.5
1076.79611	3649.1
1080.46974	3621.9
1084.14085	3567.1
1087.80943	3506.8
1091.47549	3451.8
1095.13903	3424.2
1098.80005	3393.2
1102.45857	3386.8
1106.11456	3394.6
1109.76805	3446.2
1113.41903	3549.1
1117.06751	3724.3
1120.71348	3996.3
1124.35696	4349.5
1127.99793	4785.6
1131.63641	5123.8
1135.2724	5291.4
1138.90589	5268.2
1142.5369	5044
1146.16542	4718.4
1149.79145	4358.7
1153.415	4029.1
1157.03607	3777.6
1160.65467	3606.5
1164.27079	3506.1
1167.88443	3448.7
1171.49561	3442.2
1175.10432	3482.4
1178.71056	3523.9
1182.31434	3597
1185.91565	3643.5
1189.51451	3708.9
1193.11091	3771
1196.70485	3847.7
1200.29634	3945.7
1203.88538	4022.6
1207.47197	4040
1211.05612	4010.7
1214.63782	3925.5
1218.21708	3822.6
1221.79391	3680.5
1225.36829	3569.7
1228.94024	3494.2
1232.50976	3448.2
1236.07685	3435.9
1239.6415	3444.1
1243.20374	3449.1
1246.76355	3473
1250.32093	3507.3
1253.8759	3545.7
1257.42845	3571.1
1260.97859	3593.8
1264.52631	3614.4
1268.07163	3615.8
1271.61453	3614.3
1275.15503	3600.6
1278.69312	3578.4
1282.22882	3544.6
1285.76211	3510.7
1289.29301	3492.5
1292.82151	3495.5
1296.34761	3518
1299.87133	3562.7
1303.39266	3608.6
1306.9116	3657.2
1310.42815	3729.1
1313.94233	3804.2
1317.45412	3831.4
1320.96354	3855.2
1324.47058	3867.7
1327.97525	3896.8
1331.47754	3905
1334.97747	3950
1338.47502	3994.1
1341.97022	4046.4
1345.46305	4146.3
1348.95352	4219.5
1352.44163	4313.2
1355.92738	4403.5
1359.41078	4491.2
1362.89183	4604.1
1366.37053	4609.8
1369.84688	4530.4
1373.32088	4418
1376.79254	4290.4
1380.26186	4192.7
1383.72883	4091.7
1387.19347	4024.3
1390.65578	3924.4
1394.11575	3830.1
1397.57339	3757.9
1401.0287	3672.8
1404.48168	3616.4
1407.93234	3532.5
1411.38068	3473.6
1414.82669	3395.9
1418.27039	3317.6
1421.71177	3247.4
1425.15083	3179.9
1428.58758	3128.5
1432.02203	3092
1435.45416	3082.1
1438.88399	3036.3
1442.31151	3046.8
1445.73673	3021.1
1449.15965	3041.1
1452.58027	3025.5
1455.9986	3012.5
1459.41463	3023
1462.82837	3058.3
1466.23982	3045.3
1469.64898	3064.8
1473.05586	3089.7
1476.46045	3100.3
1479.86276	3104.7
1483.26279	3131.9
1486.66054	3142.5
1490.05602	3158.5
1493.44922	3180.6
1496.84016	3237.2
1500.22882	3308.4
1503.61521	3395.1
1506.99934	3497.2
1510.38121	3561.4
1513.76081	3570.8
1517.13816	3540
1520.51324	3475.2
1523.88607	3405.5
1527.25665	3366.3
1530.62498	3375.5
1533.99105	3392.6
1537.35488	3420.9
1540.71647	3453.7
1544.07581	3504.8
1547.4329	3522.5
1550.78776	3558.4
1554.14038	3559.2
1557.49077	3586
1560.83892	3589.4
1564.18484	3583.7
1567.52853	3589
1570.86999	3618.1
1574.20922	3617.7
1577.54624	3626.2
1580.88103	3630.3
1584.2136	3576.3
1587.54395	3501.1
1590.87208	3462.5
1594.19801	3437.5
1597.52172	3435
1600.84321	3446.7
1604.16251	3435
1607.47959	3423.4
1610.79447	3435.1
1614.10715	3389.6
1617.41763	3391.2
1620.7259	3376
1624.03199	3391.3
1627.33587	3418.8
1630.63757	3448.8
1633.93707	3515.5
1637.23439	3568.2
1640.52951	3645.8
1643.82246	3767.7
1647.11321	3877.8
1650.40179	3975.1
1653.68819	4015.8
1656.97241	4001
1660.25446	3953
1663.53433	3908.3
1666.81203	3881.9
1670.08756	3892.8
1673.36092	3898.8
1676.63211	3904.2
1679.90115	3911.7
1683.16801	3928.1
1686.43272	3890.2
1689.69527	3847.5
1692.95567	3775.2
1696.2139	3708.8
1699.46999	3622.3
1702.72392	3534.8
1705.97571	3419.6
1709.22535	3266.8
1712.47284	3126.1
1715.71819	2998
1718.96139	2895
1722.20246	2796
1725.44139	2733.6
1728.67818	2678.5
1731.91284	2610.3
1735.14537	2558.1
1738.37576	2516.3
1741.60403	2499.2
1744.83017	2477.5
1748.05418	2476.2
1751.27607	2453.9
1754.49584	2471.1
1757.71349	2472.1
1760.92903	2470.7
1764.14244	2440.1
1767.35375	2441.6
1770.56294	2416.2
1773.77002	2398.4
1776.97499	2365.7
1780.17785	2350.8
1783.37861	2330.2
1786.57727	2312.1
1789.77382	2306.6
1792.96828	2277
1796.16064	2256.6
1799.3509	2242.8
1802.53907	2240.9
1805.72514	2228.9
1808.90913	2210
1812.09102	2216.8
1815.27083	2196.4
1818.44856	2191.3
1821.6242	2181.8
1824.79776	2180.1
1827.96924	2172.9
1831.13864	2165.6
1834.30597	2162.2
1837.47122	2157.7
1840.6344	2142.8
1843.7955	2149.4
1846.95454	2158.2
1850.11151	2145.3
1853.26642	2139.4
1856.41926	2143
1859.57004	2128.7
1862.71876	2132.4
1865.86542	2116.4
1869.01003	2115.6
1872.15258	2103.8
1875.29308	2114.9
1878.43152	2097.1
1881.56792	2093.2
1884.70227	2086.2
1887.83457	2085.2
1890.96482	2072.7
1894.09304	2070.5
1897.21921	2068.1
1900.34335	2068.4
1903.46544	2065.4
1906.58551	2066
1909.70353	2060.8
1912.81953	2055.4
1915.93349	2051.3
1919.04543	2037.4
1922.15534	2042.9
1925.26322	2027.2
1928.36908	2012.3
1931.47292	2017.3
1934.57473	2023.5
1937.67453	2007.6
1940.77232	1986.6
1943.86808	1989.1
1946.96184	1992.1
1950.05358	1974.7
1953.14331	1966.5
1956.23103	1964.4
1959.31675	1952.3
1962.40046	1948.3
1965.48217	1948.5
1968.56188	1933.6
1971.63959	1930.1
1974.7153	1921.9
1977.78901	1917.2
1980.86073	1914
1983.93046	1892.6
1986.99819	1890.6
1990.06394	1887.1
1993.1277	1885.4
1996.18947	1874.1
1999.24925	1871.9
2002.30706	1870.4
2005.36288	1859.1
2008.41672	1841.9
2011.46859	1848.6
2014.51848	1832.4
2017.56639	1807.9
2020.61233	1820.8
2023.6563	1815.7
2026.6983	1810.3
2029.73833	1795.3
2032.7764	1793.1
2035.8125	1793.4
2038.84664	1780.6
2041.87881	1779.2
2044.90903	1765.3
2047.93729	1767.3
2050.96359	1759
2053.98794	1767.6
2057.01034	1768.7
2060.03078	1760
2063.04927	1756.9
2066.06582	1758.4
2069.08042	1747
2072.09307	1747.6
2075.10378	1740.7
2078.11255	1742.5
2081.11938	1744.4
2084.12426	1749.5
2087.12722	1739.4
2090.12824	1742.7
2093.12732	1742.5
2096.12447	1734.5
2099.11969	1734.7
2102.11299	1734.4
2105.10435	1731.7
2108.09379	1729.1
2111.08131	1730.1
2114.0669	1732.8
2117.05057	1738.3
2120.03233	1728
2123.01216	1725.5
2125.99008	1731.4
2128.96609	1733
2131.94018	1723.5
2134.91236	1724.2
2137.88263	1742.2
2140.851	1723.3
2143.81746	1725
2146.78201	1723.1
2149.74466	1729.3
2152.7054	1720.3
2155.66425	1725.8
2158.6212	1723.4
2161.57625	1719.4
2164.52941	1726.8
2167.48067	1716.3
2170.43004	1713.4
2173.37752	1709.3
2176.32311	1706.8
2179.26681	1699.8
2182.20863	1700.7
2185.14856	1707.1
2188.08661	1695.3
2191.02278	1695.4
2193.95707	1690.9
2196.88948	1695.2
2199.82001	1688.3
2202.74867	1686.2
2205.67545	1671.6
2208.60037	1679.4
2211.52341	1673.4
2214.44458	1667
2217.36388	1660.3
2220.28132	1660.7
2223.1969	1653
2226.11061	1652.9
2229.02246	1641.5
2231.93245	1637.4
2234.84058	1631.7
2237.74686	1638.7
2240.65128	1635.5
2243.55385	1619.7
2246.45456	1618
2249.35343	1623.5
2252.25044	1621.7
2255.14561	1608.6
2258.03893	1605.2
2260.93041	1611.2
2263.82004	1601.5
2266.70783	1603.4
2269.59378	1591.9
2272.4779	1582.6
2275.36017	1577
2278.24061	1575.5
2281.11922	1562.8
2283.996	1556
2286.87094	1563.4
2289.74405	1561.6
2292.61534	1564.1
2295.4848	1550.5
2298.35243	1551.8
2301.21824	1548.7
2304.08223	1542.7
2306.94439	1540.6
2309.80474	1541.9
2312.66327	1532.3
2315.51999	1541.6
2318.37489	1524.4
2321.22797	1524.2
2324.07925	1517.7
2326.92871	1527.1
2329.77637	1512.1
2332.62222	1509
2335.46626	1504.9
2338.3085	1507.9
2341.14893	1506.4
2343.98756	1492.7
2346.8244	1492.8
2349.65943	1497.8
2352.49267	1484.1
2355.32411	1496.3
2358.15376	1479.7
2360.98161	1484.5
2363.80768	1477.6
2366.63195	1471.9
2369.45444	1474.8
2372.27514	1466.1
2375.09405	1473.2
2377.91118	1469.9
2380.72652	1463.8
2383.54009	1459.3
2386.35187	1461.4
2389.16188	1464.6
2391.97011	1456
2394.77657	1446
2397.58125	1443.5
2400.38416	1435.2
2403.18529	1438.7
2405.98466	1436.4
2408.78226	1424.6
2411.57809	1424.4
2414.37216	1419.4
2417.16446	1424.6
2419.955	1418
2422.74378	1416.8
2425.5308	1409.7
2428.31606	1409.4
2431.09956	1406.9
2433.88131	1398.2
2436.6613	1405.5
2439.43954	1388.4
2442.21603	1388.7
2444.99077	1394.3
2447.76377	1398.2
2450.53501	1386.6
2453.30451	1389.6
2456.07226	1378.9
2458.83827	1378.5
2461.60254	1372.5
2464.36507	1366.1
2467.12586	1366.3
2469.88492	1369
2472.64224	1365.7
2475.39782	1371.5
2478.15167	1364.8
2480.90379	1360
2483.65417	1358.4
2486.40283	1346.6
2489.14976	1356.5
2491.89497	1356.5
2494.63845	1361.3
2497.3802	1343.8
2500.12024	1344.9
2502.85855	1345.4
2505.59514	1341.6
2508.33002	1341.2
2511.06318	1338
2513.79462	1331.2
2516.52435	1328.2
2519.25237	1324.9
2521.97867	1319.3
2524.70327	1320.9
2527.42616	1321.6
2530.14734	1314.5
2532.86681	1306.5
2535.58458	1309.8
2538.30065	1308.5
2541.01501	1301.3
2543.72768	1306.4
2546.43864	1299.4
2549.14791	1293.3
2551.85548	1296.4
2554.56136	1283
2557.26554	1285.3
2559.96803	1280.4
2562.66883	1281.7
2565.36794	1273.8
2568.06536	1272.3
2570.7611	1268.3
2573.45514	1267.9
2576.14751	1271.2
2578.83819	1257.9
2581.52719	1262.3
2584.21451	1252.4
2586.90015	1251.2
2589.58411	1248.3
2592.2664	1250.1
2594.94701	1245.1
2597.62594	1234.6
2600.30321	1233.2
2602.9788	1242.2
2605.65273	1232.8
2608.32498	1224.6
2610.99557	1224.5
2613.66449	1226
2616.33175	1223.2
2618.99734	1215.3
2621.66128	1220.6
2624.32355	1211.6
2626.98416	1210.3
2629.64311	1215.3
2632.30041	1214.9
2634.95605	1213.1
2637.61004	1211.6
2640.26238	1207.4
2642.91306	1190.9
2645.56209	1200.1
2648.20948	1203.5
2650.85521	1191.7
2653.4993	1197.7
2656.14175	1189.8
2658.78255	1192.5
2661.42171	1192.3
2664.05923	1203
2666.6951	1180.3
2669.32934	1187.6
2671.96194	1185.5
2674.59291	1190
2677.22224	1188.9
2679.84993	1180.7
2682.476	1181.4
2685.10043	1185.6
2687.72324	1189.2
2690.34441	1180.3
2692.96396	1189.3
2695.58188	1185.5
2698.19818	1188.4
2700.81285	1182.2
2703.4259	1198.3
2706.03733	1223.4
2708.64714	1207.8
2711.25533	1189.4
2713.86191	1197.4
2716.46687	1190.9
2719.07021	1183.6
2721.67194	1185.2
2724.27206	1181.7
2726.87057	1182.9
2729.46747	1176.1
2732.06276	1183.7
2734.65644	1184.2
2737.24852	1180.5
2739.83899	1170.7
2742.42786	1164.4
2745.01513	1161.7
2747.60079	1170.7
2750.18486	1161.5
2752.76733	1163.6
2755.3482	1162.8
2757.92747	1165.5
2760.50515	1165.2
2763.08123	1155.3
2765.65573	1155.3
2768.22863	1161.2
2770.79994	1150.8
2773.36967	1148.8
2775.9378	1147.4
2778.50435	1139.4
2781.06932	1138.6
2783.6327	1137.5
2786.1945	1134
2788.75471	1137
2791.31335	1132
2793.87041	1125.1
2796.42589	1130.5
2798.97979	1122.8
2801.53212	1117.8
2804.08288	1112.4
2806.63206	1114
2809.17967	1110.5
2811.72571	1113.8
2814.27018	1110.4
2816.81308	1104.4
2819.35442	1100.3
2821.89419	1097.8
2824.43239	1101.4
2826.96904	1091.7
2829.50412	1100.2
2832.03763	1100.2
2834.56959	1102.3
2837.1	1100.4
2839.62884	1093
2842.15613	1090.6
2844.68186	1100.7
2847.20604	1098.7
2849.72867	1101.8
2852.24974	1099.2
2854.76927	1099.2
2857.28724	1110.3
2859.80367	1099.7
2862.31855	1087.4
2864.83189	1088.2
2867.34368	1083.6
2869.85393	1081.4
2872.36264	1085.2
2874.8698	1097.9
2877.37543	1090.7
2879.87952	1087.9
2882.38207	1094.1
2884.88308	1092
2887.38256	1090.7
2889.88051	1091.5
2892.37692	1101.3
2894.8718	1094.8
2897.36515	1100.5
2899.85698	1107
2902.34727	1115.7
2904.83604	1101.6
2907.32328	1106.7
2909.809	1109.2
2912.29319	1117
2914.77587	1111.2
2917.25702	1107
2919.73665	1130
2922.21476	1122.5
2924.69136	1110.8
2927.16644	1121.5
2929.64	1128
2932.11205	1126.5
2934.58258	1122.7
2937.05161	1127.6
2939.51912	1128.6
2941.98513	1131.2
2944.44962	1122.7
2946.91261	1125.2
2949.37409	1130.6
2951.83407	1133.5
2954.29254	1129.1
2956.74951	1128
2959.20498	1120.1
2961.65895	1119.3
2964.11142	1123.3
2966.56239	1120.6
2969.01186	1109.7
2971.45984	1110.4
2973.90632	1101.4
2976.35131	1099.9
2978.7948	1102.5
2981.23681	1101.5
2983.67732	1094.5
2986.11635	1092.4
2988.55388	1087.4
2990.98993	1085.7
2993.4245	1090.1
2995.85758	1091.2
2998.28917	1091.3
3000.71928	1084.9
3003.14791	1078
3005.57506	1089.6
3008.00073	1091.3
3010.42493	1086.3
3012.84764	1091.1
3015.26888	1092
3017.68865	1093.4
3020.10694	1093.4
3022.52376	1097.1
3024.9391	1095.1
3027.35298	1091.6
3029.76539	1092.3
3032.17632	1096.9
3034.5858	1089.2
3036.9938	1095.6
3039.40034	1098
3041.80542	1094.7
3044.20903	1094.5
3046.61118	1090
3049.01187	1097.6
3051.4111	1096.7
3053.80888	1100.4
3056.20519	1103.2
3058.60005	1092.1
3060.99345	1101.8
3063.3854	1103.5
3065.7759	1098.8
3068.16494	1098.9
3070.55254	1098.4
3072.93868	1102.7
3075.32338	1106.9
3077.70662	1115.8
3080.08842	1122.3
3082.46878	1122.1
3084.84769	1126
3087.22515	1124.5
3089.60118	1140.3
3091.97576	1135.3
3094.3489	1140.8
3096.72061	1147
3099.09087	1149
3101.4597	1152.4
3103.82709	1161.3
3106.19305	1153.8
3108.55757	1165.2
3110.92066	1169.7
3113.28232	1169.1
3115.64255	1169.8
3118.00134	1173.6
3120.35871	1171.3
3122.71466	1181.1
3125.06917	1190.4
3127.42226	1185.1
3129.77393	1197.3
3132.12417	1198.3
3134.47299	1202.8
3136.82039	1207.6
3139.16636	1211.7
3141.51092	1224.7
3143.85406	1233.3
3146.19579	1243.3
3148.53609	1246.1
3150.87499	1248.6
3153.21246	1266.5
3155.54853	1258.1
3157.88318	1269.1
3160.21642	1269.9
3162.54826	1283
3164.87868	1282.8
3167.2077	1288.2
3169.5353	1293.7
3171.86151	1297.4
3174.18631	1299.6
3176.5097	1304.6
3178.83169	1315.1
3181.15228	1313.5
3183.47147	1317.6
3185.78926	1318.5
3188.10565	1324.8
3190.42065	1335.6
3192.73424	1336.6
3195.04645	1338.8
3197.35725	1346.8
3199.66667	1352
3201.97469	1357.3
3204.28132	1364.3
3206.58656	1359.7
3208.8904	1368.7
3211.19287	1370.9
3213.49394	1384
3215.79363	1383.5
3218.09193	1385
3220.38884	1387.2
3222.68438	1394.2
3224.97853	1388.4
3227.2713	1392.5
3229.56269	1389.7
3231.8527	1385.6
3234.14133	1379.4
3236.42858	1389.2
3238.71446	1385.1
3240.99896	1383.3
3243.28209	1379.2
3245.56384	1385.2
3247.84423	1382.4
3250.12324	1382
3252.40088	1395.6
3254.67715	1388.1
3256.95205	1390.1
3259.22558	1388.1
3261.49775	1377.7
3263.76855	1389.4
3266.03799	1380.4
3268.30606	1388.6
3270.57277	1377.6
3272.83812	1372.8
3275.10211	1375.2
3277.36474	1378.5
3279.62601	1368.3
3281.88593	1377.1
3284.14448	1378.7
3286.40168	1382.5
3288.65753	1372
3290.91202	1364.4
3293.16516	1363.1
3295.41695	1368.1
3297.66738	1355.3
3299.91647	1348.5
3302.16421	1348.8
3304.4106	1338.1
3306.65564	1334
3308.89933	1330.2
3311.14169	1319
3313.38269	1312.9
3315.62236	1309.8
3317.86068	1302.9
3320.09766	1290.6
3322.3333	1277.4
3324.5676	1288.9
3326.80056	1271.5
3329.03219	1262.5
3331.26248	-0.4
3333.49143	0.9
3335.71905	-0.5
