Data from AgNPs_FTO_APTES_UA_0.1mM_CRN_10uM_NaF_0.1M_Addition_RamanShift__10__11-30-07-545.txt Node

Date: Mon Dec 20 11:30:07 GMT 2021
User: TCL
Spectrometer: QEP01345
Trigger mode: 4
Integration Time (sec): 7.000000E0
Scans to average: 10
Electric dark correction enabled: true
Nonlinearity correction enabled: false
Boxcar width: 0
XAxis mode: Raman Shifts
Number of Pixels in Spectrum: 1044
>>>>>Begin Spectral Data<<<<<
46.04893	0.8125
50.45542	0.1125
54.85868	-1.1875
59.25871	-0.0875
63.6555	27.0125
68.04907	29.9125
72.43941	33.8125
76.82654	34.6125
81.21044	34.2125
85.59113	40.9125
89.96862	36.7125
94.34289	40.8125
98.71396	43.6125
103.08183	39.5125
107.4465	44.8125
111.80798	42.4125
116.16626	44.1125
120.52136	46.1125
124.87327	45.5125
129.222	48.4125
133.56755	50.6125
137.90993	53.6125
142.24913	55.7125
146.58517	58.3125
150.91804	67.8125
155.24774	83.5125
159.57429	93.5125
163.89768	120.8125
168.21792	155.8125
172.53501	204.9125
176.84895	273.0125
181.15975	388.4125
185.46741	530.2125
189.77193	727.5125
194.07331	976.8125
198.37157	1259.5125
202.6667	1562.6125
206.9587	1871.0125
211.24758	2142.0125
215.53334	2447.4125
219.81599	2778.1125
224.09553	3117.4125
228.37195	3512.3125
232.64527	3972.4125
236.91549	4448.4125
241.18261	4919.5125
245.44663	5368.7125
249.70755	5732.8125
253.96539	5998.4125
258.22014	6174.9125
262.4718	6275.1125
266.72039	6256.1125
270.96589	6162.4125
275.20832	6012.0125
279.44768	5830.0125
283.68397	5665.6125
287.91719	5519.7125
292.14735	5380.4125
296.37445	5280.7125
300.59849	5245.2125
304.81948	5179.7125
309.03742	5141.1125
313.25231	5087.4125
317.46415	5031.6125
321.67296	4945.9125
325.87872	4861.4125
330.08145	4828.1125
334.28114	4801.8125
338.47781	4813.5125
342.67145	4820.5125
346.86207	4848.5125
351.04966	4897.4125
355.23424	4947.1125
359.4158	4990.8125
363.59435	5039.9125
367.76989	5062.5125
371.94243	5087.7125
376.11196	5142.3125
380.27849	5175.3125
384.44203	5221.2125
388.60257	5261.3125
392.76012	5328.2125
396.91468	5425.2125
401.06626	5538.0125
405.21485	5634.2125
409.36047	5667.7125
413.50311	5633.3125
417.64277	5602.4125
421.77947	5555.8125
425.9132	5534.4125
430.04396	5519.6125
434.17176	5531.0125
438.2966	5540.0125
442.41849	5551.1125
446.53742	5577.8125
450.6534	5638.8125
454.76644	5665.5125
458.87653	5696.7125
462.98368	5692.7125
467.08789	5694.0125
471.18916	5704.4125
475.2875	5714.2125
479.38291	5753.3125
483.4754	5812.3125
487.56496	5881.3125
491.6516	5956.6125
495.73531	6017.3125
499.81612	6076.4125
503.89401	6098.8125
507.96899	6111.2125
512.04106	6062.1125
516.11023	5966.0125
520.1765	5890.9125
524.23987	5833.9125
528.30034	5766.6125
532.35792	5723.8125
536.41261	5667.0125
540.46441	5626.8125
544.51333	5617.2125
548.55936	5604.7125
552.60252	5616.9125
556.64279	5653.6125
560.6802	5680.2125
564.71473	5712.6125
568.7464	5719.2125
572.7752	5773.2125
576.80114	5845.1125
580.82422	5916.3125
584.84444	6022.2125
588.86181	6120.0125
592.87633	6176.3125
596.888	6194.0125
600.89682	6173.4125
604.9028	6224.4125
608.90594	6447.6125
612.90624	6790.2125
616.90371	6689.2125
620.89834	6257.7125
624.89015	6085.8125
628.87913	6211.9125
632.86528	6418.2125
636.84862	6601.8125
640.82913	6659.6125
644.80683	6577.9125
648.78172	6442.0125
652.75379	6332.2125
656.72306	6234.0125
660.68952	6150.8125
664.65319	6097.7125
668.61405	6030.9125
672.57211	6022.1125
676.52738	6014.1125
680.47986	6017.6125
684.42955	5987.7125
688.37646	5974.5125
692.32058	5911.1125
696.26192	5881.9125
700.20048	5846.5125
704.13626	5785.5125
708.06928	5766.7125
711.99952	5707.7125
715.927	5680.4125
719.85171	5645.8125
723.77365	5614.9125
727.69284	5630.5125
731.60928	5611.2125
735.52295	5584.3125
739.43388	5590.7125
743.34206	5623.8125
747.24749	5682.9125
751.15017	5732.5125
755.05012	5785.6125
758.94733	5869.9125
762.8418	5977.9125
766.73354	6156.3125
770.62254	6309.1125
774.50882	6332.9125
778.39237	6179.9125
782.27321	5962.9125
786.15132	5732.3125
790.02671	5611.1125
793.89938	5561.7125
797.76935	5573.8125
801.6366	5633.5125
805.50115	5736.1125
809.36299	5839.7125
813.22213	5854.8125
817.07857	5826.4125
820.93231	5713.7125
824.78336	5555.4125
828.63172	5457.9125
832.47738	5378.1125
836.32036	5330.8125
840.16066	5321.1125
843.99827	5304.6125
847.8332	5310.0125
851.66546	5286.2125
855.49504	5294.6125
859.32195	5310.1125
863.1462	5331.4125
866.96777	5323.7125
870.78668	5362.3125
874.60293	5407.9125
878.41652	5462.9125
882.22745	5519.5125
886.03573	5562.1125
889.84136	5565.5125
893.64433	5569.3125
897.44466	5536.1125
901.24235	5477.8125
905.0374	5373.5125
908.8298	5341.5125
912.61957	5307.2125
916.40671	5302.5125
920.19121	5303.3125
923.97308	5291.2125
927.75233	5272.2125
931.52895	5245.5125
935.30295	5202.1125
939.07433	5151.4125
942.84309	5128.3125
946.60924	5090.6125
950.37278	5082.4125
954.13371	5054.0125
957.89203	5064.7125
961.64774	5058.7125
965.40086	5057.2125
969.15137	5073.1125
972.89929	5042.0125
976.64461	5039.0125
980.38733	5030.1125
984.12747	5019.0125
987.86502	5024.5125
991.59999	5020.1125
995.33237	5054.0125
999.06217	5079.8125
1002.78939	5136.4125
1006.51404	5166.2125
1010.23611	5223.3125
1013.95561	5261.2125
1017.67255	5289.0125
1021.38692	5278.0125
1025.09872	5268.6125
1028.80796	5224.3125
1032.51465	5192.6125
1036.21877	5177.8125
1039.92035	5142.7125
1043.61937	5155.8125
1047.31584	5150.5125
1051.00976	5155.3125
1054.70114	5185.2125
1058.38998	5167.5125
1062.07627	5210.0125
1065.76003	5241.5125
1069.44126	5268.6125
1073.11995	5317.7125
1076.79611	5346.7125
1080.46974	5373.6125
1084.14085	5375.5125
1087.80943	5356.1125
1091.47549	5354.1125
1095.13903	5335.7125
1098.80005	5292.3125
1102.45857	5263.6125
1106.11456	5223.9125
1109.76805	5239.4125
1113.41903	5302.1125
1117.06751	5406.0125
1120.71348	5582.7125
1124.35696	5796.2125
1127.99793	6052.4125
1131.63641	6242.5125
1135.2724	6353.9125
1138.90589	6370.9125
1142.5369	6267.7125
1146.16542	6146.4125
1149.79145	5986.3125
1153.415	5793.6125
1157.03607	5647.6125
1160.65467	5546.5125
1164.27079	5506.7125
1167.88443	5538.6125
1171.49561	5629.4125
1175.10432	5762.5125
1178.71056	5966.7125
1182.31434	6178.2125
1185.91565	6289.8125
1189.51451	6329.5125
1193.11091	6319.8125
1196.70485	6293.1125
1200.29634	6273.8125
1203.88538	6227.0125
1207.47197	6216.6125
1211.05612	6189.2125
1214.63782	6134.5125
1218.21708	6074.9125
1221.79391	5992.7125
1225.36829	5887.1125
1228.94024	5819.6125
1232.50976	5780.6125
1236.07685	5719.9125
1239.6415	5674.8125
1243.20374	5653.3125
1246.76355	5679.1125
1250.32093	5715.7125
1253.8759	5759.6125
1257.42845	5844.8125
1260.97859	5905.4125
1264.52631	5976.6125
1268.07163	6028.7125
1271.61453	6028.9125
1275.15503	6064.0125
1278.69312	6077.2125
1282.22882	6085.2125
1285.76211	6122.5125
1289.29301	6205.4125
1292.82151	6316.3125
1296.34761	6477.0125
1299.87133	6636.0125
1303.39266	6803.2125
1306.9116	7001.7125
1310.42815	7208.2125
1313.94233	7314.3125
1317.45412	7351.6125
1320.96354	7314.0125
1324.47058	7235.7125
1327.97525	7225.9125
1331.47754	7168.6125
1334.97747	7167.1125
1338.47502	7181.9125
1341.97022	7217.8125
1345.46305	7289.3125
1348.95352	7377.9125
1352.44163	7488.1125
1355.92738	7618.7125
1359.41078	7843.5125
1362.89183	8038.2125
1366.37053	8022.7125
1369.84688	7675.2125
1373.32088	7217.7125
1376.79254	6890.4125
1380.26186	6710.8125
1383.72883	6621.6125
1387.19347	6537.4125
1390.65578	6445.9125
1394.11575	6392.5125
1397.57339	6305.9125
1401.0287	6281.5125
1404.48168	6233.0125
1407.93234	6144.3125
1411.38068	6063.0125
1414.82669	5932.1125
1418.27039	5800.1125
1421.71177	5658.3125
1425.15083	5561.2125
1428.58758	5472.4125
1432.02203	5429.7125
1435.45416	5473.7125
1438.88399	5467.6125
1442.31151	5481.7125
1445.73673	5496.2125
1449.15965	5523.5125
1452.58027	5530.3125
1455.9986	5548.4125
1459.41463	5583.0125
1462.82837	5618.6125
1466.23982	5691.1125
1469.64898	5757.4125
1473.05586	5825.5125
1476.46045	5850.2125
1479.86276	5863.9125
1483.26279	5879.6125
1486.66054	5917.2125
1490.05602	5955.4125
1493.44922	6034.9125
1496.84016	6136.9125
1500.22882	6286.0125
1503.61521	6518.4125
1506.99934	6745.6125
1510.38121	6897.6125
1513.76081	6930.2125
1517.13816	6809.2125
1520.51324	6618.4125
1523.88607	6451.1125
1527.25665	6356.7125
1530.62498	6317.9125
1533.99105	6306.4125
1537.35488	6314.1125
1540.71647	6298.8125
1544.07581	6305.5125
1547.4329	6292.0125
1550.78776	6303.0125
1554.14038	6302.9125
1557.49077	6335.9125
1560.83892	6373.4125
1564.18484	6391.9125
1567.52853	6425.8125
1570.86999	6462.7125
1574.20922	6525.5125
1577.54624	6527.8125
1580.88103	6492.0125
1584.2136	6427.4125
1587.54395	6393.0125
1590.87208	6418.9125
1594.19801	6494.7125
1597.52172	6566.4125
1600.84321	6633.1125
1604.16251	6523.4125
1607.47959	6388.4125
1610.79447	6224.6125
1614.10715	6047.8125
1617.41763	5886.4125
1620.7259	5768.6125
1624.03199	5705.3125
1627.33587	5695.4125
1630.63757	5725.2125
1633.93707	5844.7125
1637.23439	6005.6125
1640.52951	6255.8125
1643.82246	6592.0125
1647.11321	6931.5125
1650.40179	7116.2125
1653.68819	7051.5125
1656.97241	6765.7125
1660.25446	6390.8125
1663.53433	6073.4125
1666.81203	5832.1125
1670.08756	5665.0125
1673.36092	5536.6125
1676.63211	5454.1125
1679.90115	5378.6125
1683.16801	5300.3125
1686.43272	5205.4125
1689.69527	5129.4125
1692.95567	5017.3125
1696.2139	4912.5125
1699.46999	4818.5125
1702.72392	4730.7125
1705.97571	4646.4125
1709.22535	4573.8125
1712.47284	4487.3125
1715.71819	4428.6125
1718.96139	4367.4125
1722.20246	4311.9125
1725.44139	4256.2125
1728.67818	4203.4125
1731.91284	4144.1125
1735.14537	4095.6125
1738.37576	4051.0125
1741.60403	4023.4125
1744.83017	4006.4125
1748.05418	3975.3125
1751.27607	3961.3125
1754.49584	3946.8125
1757.71349	3916.7125
1760.92903	3914.4125
1764.14244	3899.2125
1767.35375	3901.6125
1770.56294	3882.5125
1773.77002	3856.1125
1776.97499	3843.6125
1780.17785	3840.1125
1783.37861	3813.9125
1786.57727	3788.0125
1789.77382	3779.9125
1792.96828	3773.0125
1796.16064	3765.7125
1799.3509	3722.6125
1802.53907	3723.3125
1805.72514	3708.7125
1808.90913	3688.7125
1812.09102	3697.6125
1815.27083	3674.9125
1818.44856	3664.7125
1821.6242	3651.4125
1824.79776	3636.4125
1827.96924	3635.2125
1831.13864	3621.9125
1834.30597	3619.4125
1837.47122	3606.3125
1840.6344	3597.1125
1843.7955	3606.6125
1846.95454	3606.2125
1850.11151	3586.8125
1853.26642	3575.7125
1856.41926	3574.9125
1859.57004	3575.5125
1862.71876	3574.4125
1865.86542	3540.2125
1869.01003	3536.2125
1872.15258	3533.1125
1875.29308	3541.3125
1878.43152	3526.6125
1881.56792	3517.7125
1884.70227	3503.6125
1887.83457	3507.1125
1890.96482	3492.4125
1894.09304	3495.5125
1897.21921	3482.1125
1900.34335	3477.6125
1903.46544	3468.7125
1906.58551	3470.3125
1909.70353	3457.5125
1912.81953	3445.9125
1915.93349	3441.9125
1919.04543	3427.9125
1922.15534	3421.5125
1925.26322	3415.3125
1928.36908	3410.2125
1931.47292	3398.9125
1934.57473	3394.1125
1937.67453	3388.0125
1940.77232	3364.3125
1943.86808	3351.3125
1946.96184	3348.4125
1950.05358	3332.9125
1953.14331	3333.0125
1956.23103	3311.3125
1959.31675	3300.0125
1962.40046	3305.7125
1965.48217	3291.2125
1968.56188	3272.0125
1971.63959	3266.6125
1974.7153	3247.2125
1977.78901	3235.7125
1980.86073	3231.1125
1983.93046	3230.2125
1986.99819	3210.1125
1990.06394	3184.5125
1993.1277	3188.2125
1996.18947	3165.2125
1999.24925	3156.1125
2002.30706	3151.1125
2005.36288	3132.9125
2008.41672	3127.7125
2011.46859	3130.5125
2014.51848	3114.7125
2017.56639	3093.1125
2020.61233	3084.2125
2023.6563	3084.5125
2026.6983	3083.4125
2029.73833	3054.5125
2032.7764	3050.5125
2035.8125	3043.0125
2038.84664	3039.6125
2041.87881	3029.1125
2044.90903	3029.6125
2047.93729	3013.7125
2050.96359	3005.5125
2053.98794	3002.1125
2057.01034	2998.3125
2060.03078	3014.6125
2063.04927	2981.6125
2066.06582	2987.5125
2069.08042	2989.0125
2072.09307	2972.6125
2075.10378	2974.5125
2078.11255	2974.7125
2081.11938	2963.2125
2084.12426	2969.2125
2087.12722	2969.6125
2090.12824	2967.9125
2093.12732	2960.6125
2096.12447	2960.3125
2099.11969	2958.9125
2102.11299	2962.9125
2105.10435	2952.9125
2108.09379	2965.1125
2111.08131	2956.7125
2114.0669	2952.2125
2117.05057	2960.3125
2120.03233	2969.7125
2123.01216	2970.5125
2125.99008	2952.7125
2128.96609	2969.8125
2131.94018	2970.7125
2134.91236	2961.7125
2137.88263	2950.0125
2140.851	2960.7125
2143.81746	2964.7125
2146.78201	2954.8125
2149.74466	2941.4125
2152.7054	2951.1125
2155.66425	2958.4125
2158.6212	2950.6125
2161.57625	2942.8125
2164.52941	2941.9125
2167.48067	2939.0125
2170.43004	2932.3125
2173.37752	2943.3125
2176.32311	2922.5125
2179.26681	2916.1125
2182.20863	2931.6125
2185.14856	2916.2125
2188.08661	2916.7125
2191.02278	2915.7125
2193.95707	2920.8125
2196.88948	2900.4125
2199.82001	2908.0125
2202.74867	2902.8125
2205.67545	2892.6125
2208.60037	2882.0125
2211.52341	2868.7125
2214.44458	2870.2125
2217.36388	2844.0125
2220.28132	2862.1125
2223.1969	2846.9125
2226.11061	2838.9125
2229.02246	2832.8125
2231.93245	2825.0125
2234.84058	2828.7125
2237.74686	2810.6125
2240.65128	2814.7125
2243.55385	2802.7125
2246.45456	2804.7125
2249.35343	2782.1125
2252.25044	2787.4125
2255.14561	2780.2125
2258.03893	2778.0125
2260.93041	2773.2125
2263.82004	2763.4125
2266.70783	2752.3125
2269.59378	2748.7125
2272.4779	2738.7125
2275.36017	2736.2125
2278.24061	2727.6125
2281.11922	2724.8125
2283.996	2713.6125
2286.87094	2717.9125
2289.74405	2708.3125
2292.61534	2693.7125
2295.4848	2682.7125
2298.35243	2682.0125
2301.21824	2673.9125
2304.08223	2680.7125
2306.94439	2676.5125
2309.80474	2674.4125
2312.66327	2676.6125
2315.51999	2664.6125
2318.37489	2666.0125
2321.22797	2652.8125
2324.07925	2651.5125
2326.92871	2646.9125
2329.77637	2634.3125
2332.62222	2635.9125
2335.46626	2629.6125
2338.3085	2620.0125
2341.14893	2610.2125
2343.98756	2606.4125
2346.8244	2612.8125
2349.65943	2604.5125
2352.49267	2594.4125
2355.32411	2593.0125
2358.15376	2597.4125
2360.98161	2586.5125
2363.80768	2577.9125
2366.63195	2586.3125
2369.45444	2584.2125
2372.27514	2571.5125
2375.09405	2565.4125
2377.91118	2566.9125
2380.72652	2550.1125
2383.54009	2550.2125
2386.35187	2552.2125
2389.16188	2546.7125
2391.97011	2530.8125
2394.77657	2528.6125
2397.58125	2516.6125
2400.38416	2510.8125
2403.18529	2509.5125
2405.98466	2510.5125
2408.78226	2499.9125
2411.57809	2495.2125
2414.37216	2489.0125
2417.16446	2494.3125
2419.955	2490.8125
2422.74378	2481.0125
2425.5308	2469.5125
2428.31606	2476.7125
2431.09956	2459.4125
2433.88131	2455.3125
2436.6613	2457.1125
2439.43954	2452.6125
2442.21603	2460.8125
2444.99077	2459.5125
2447.76377	2448.4125
2450.53501	2446.9125
2453.30451	2444.3125
2456.07226	2429.3125
2458.83827	2427.0125
2461.60254	2429.4125
2464.36507	2428.0125
2467.12586	2427.6125
2469.88492	2422.3125
2472.64224	2413.1125
2475.39782	2406.4125
2478.15167	2417.3125
2480.90379	2408.0125
2483.65417	2405.4125
2486.40283	2392.8125
2489.14976	2388.7125
2491.89497	2403.3125
2494.63845	2404.8125
2497.3802	2393.4125
2500.12024	2391.0125
2502.85855	2385.5125
2505.59514	2379.1125
2508.33002	2366.3125
2511.06318	2363.0125
2513.79462	2377.2125
2516.52435	2358.6125
2519.25237	2360.1125
2521.97867	2351.0125
2524.70327	2347.7125
2527.42616	2351.4125
2530.14734	2346.2125
2532.86681	2323.6125
2535.58458	2325.8125
2538.30065	2319.9125
2541.01501	2314.4125
2543.72768	2318.3125
2546.43864	2308.8125
2549.14791	2290.7125
2551.85548	2305.2125
2554.56136	2299.3125
2557.26554	2288.1125
2559.96803	2297.1125
2562.66883	2289.0125
2565.36794	2273.3125
2568.06536	2278.9125
2570.7611	2280.7125
2573.45514	2249.4125
2576.14751	2251.8125
2578.83819	2257.9125
2581.52719	2248.4125
2584.21451	2241.9125
2586.90015	2246.0125
2589.58411	2237.9125
2592.2664	2231.1125
2594.94701	2232.6125
2597.62594	2212.1125
2600.30321	2208.6125
2602.9788	2209.8125
2605.65273	2207.0125
2608.32498	2212.1125
2610.99557	2199.4125
2613.66449	2199.5125
2616.33175	2197.7125
2618.99734	2196.2125
2621.66128	2187.1125
2624.32355	2180.9125
2626.98416	2188.9125
2629.64311	2169.8125
2632.30041	2173.7125
2634.95605	2168.7125
2637.61004	2168.2125
2640.26238	2166.2125
2642.91306	2161.7125
2645.56209	2159.8125
2648.20948	2162.1125
2650.85521	2153.7125
2653.4993	2150.1125
2656.14175	2149.6125
2658.78255	2155.4125
2661.42171	2134.3125
2664.05923	2158.0125
2666.6951	2135.1125
2669.32934	2138.7125
2671.96194	2146.5125
2674.59291	2143.1125
2677.22224	2149.7125
2679.84993	2140.1125
2682.476	2152.4125
2685.10043	2137.8125
2687.72324	2132.5125
2690.34441	2138.6125
2692.96396	2142.9125
2695.58188	2137.0125
2698.19818	2135.8125
2700.81285	2129.4125
2703.4259	2142.5125
2706.03733	2154.6125
2708.64714	2141.1125
2711.25533	2133.4125
2713.86191	2151.3125
2716.46687	2140.6125
2719.07021	2134.6125
2721.67194	2125.7125
2724.27206	2132.5125
2726.87057	2124.4125
2729.46747	2118.6125
2732.06276	2125.0125
2734.65644	2117.5125
2737.24852	2115.7125
2739.83899	2113.3125
2742.42786	2122.7125
2745.01513	2100.7125
2747.60079	2108.4125
2750.18486	2103.0125
2752.76733	2108.5125
2755.3482	2099.6125
2757.92747	2093.6125
2760.50515	2084.8125
2763.08123	2088.9125
2765.65573	2073.7125
2768.22863	2080.0125
2770.79994	2068.0125
2773.36967	2080.5125
2775.9378	2072.5125
2778.50435	2057.1125
2781.06932	2063.3125
2783.6327	2057.0125
2786.1945	2048.2125
2788.75471	2055.8125
2791.31335	2044.5125
2793.87041	2035.9125
2796.42589	2044.1125
2798.97979	2018.8125
2801.53212	2022.4125
2804.08288	2018.6125
2806.63206	2018.1125
2809.17967	2004.6125
2811.72571	2017.4125
2814.27018	2000.7125
2816.81308	1999.7125
2819.35442	1989.5125
2821.89419	1998.7125
2824.43239	2003.4125
2826.96904	1985.0125
2829.50412	1980.5125
2832.03763	1985.7125
2834.56959	1981.1125
2837.1	1980.2125
2839.62884	1975.2125
2842.15613	1973.0125
2844.68186	1976.8125
2847.20604	1978.6125
2849.72867	1980.8125
2852.24974	1978.4125
2854.76927	1983.5125
2857.28724	1982.2125
2859.80367	1980.0125
2862.31855	1977.1125
2864.83189	1968.6125
2867.34368	1976.7125
2869.85393	1975.4125
2872.36264	1967.4125
2874.8698	1967.6125
2877.37543	1976.2125
2879.87952	1972.4125
2882.38207	1975.5125
2884.88308	1967.6125
2887.38256	1965.3125
2889.88051	1965.2125
2892.37692	1974.9125
2894.8718	1971.2125
2897.36515	1972.4125
2899.85698	1970.9125
2902.34727	1968.3125
2904.83604	1964.1125
2907.32328	1979.9125
2909.809	1977.8125
2912.29319	1971.4125
2914.77587	1964.0125
2917.25702	1975.6125
2919.73665	1971.7125
2922.21476	1960.1125
2924.69136	1963.8125
2927.16644	1975.1125
2929.64	1977.4125
2932.11205	1956.7125
2934.58258	1969.1125
2937.05161	1961.2125
2939.51912	1962.8125
2941.98513	1967.1125
2944.44962	1963.8125
2946.91261	1954.0125
2949.37409	1960.3125
2951.83407	1951.8125
2954.29254	1956.3125
2956.74951	1952.6125
2959.20498	1943.7125
2961.65895	1930.5125
2964.11142	1927.7125
2966.56239	1933.1125
2969.01186	1929.3125
2971.45984	1925.7125
2973.90632	1918.5125
2976.35131	1919.8125
2978.7948	1921.8125
2981.23681	1913.3125
2983.67732	1911.8125
2986.11635	1902.9125
2988.55388	1898.7125
2990.98993	1897.2125
2993.4245	1891.6125
2995.85758	1893.5125
2998.28917	1884.3125
3000.71928	1879.5125
3003.14791	1882.3125
3005.57506	1888.7125
3008.00073	1878.2125
3010.42493	1887.0125
3012.84764	1885.9125
3015.26888	1880.4125
3017.68865	1871.4125
3020.10694	1875.2125
3022.52376	1876.0125
3024.9391	1873.2125
3027.35298	1868.0125
3029.76539	1862.1125
3032.17632	1873.1125
3034.5858	1866.2125
3036.9938	1870.0125
3039.40034	1864.8125
3041.80542	1869.8125
3044.20903	1866.7125
3046.61118	1862.3125
3049.01187	1862.0125
3051.4111	1862.8125
3053.80888	1861.9125
3056.20519	1861.0125
3058.60005	1866.1125
3060.99345	1857.9125
3063.3854	1859.1125
3065.7759	1854.3125
3068.16494	1850.5125
3070.55254	1854.2125
3072.93868	1856.9125
3075.32338	1859.0125
3077.70662	1861.2125
3080.08842	1855.7125
3082.46878	1864.5125
3084.84769	1863.6125
3087.22515	1859.9125
3089.60118	1863.7125
3091.97576	1872.2125
3094.3489	1876.6125
3096.72061	1876.7125
3099.09087	1887.3125
3101.4597	1883.1125
3103.82709	1880.3125
3106.19305	1887.5125
3108.55757	1889.1125
3110.92066	1888.9125
3113.28232	1878.8125
3115.64255	1881.5125
3118.00134	1881.6125
3120.35871	1888.3125
3122.71466	1897.0125
3125.06917	1889.7125
3127.42226	1886.3125
3129.77393	1896.4125
3132.12417	1905.4125
3134.47299	1911.0125
3136.82039	1918.5125
3139.16636	1900.8125
3141.51092	1923.6125
3143.85406	1923.1125
3146.19579	1939.8125
3148.53609	1940.8125
3150.87499	1940.5125
3153.21246	1954.0125
3155.54853	1963.5125
3157.88318	1958.1125
3160.21642	1956.0125
3162.54826	1972.4125
3164.87868	1966.8125
3167.2077	1967.8125
3169.5353	1988.6125
3171.86151	1981.9125
3174.18631	1983.1125
3176.5097	1985.0125
3178.83169	1992.2125
3181.15228	1991.0125
3183.47147	1994.2125
3185.78926	1998.6125
3188.10565	2000.6125
3190.42065	1998.3125
3192.73424	2010.4125
3195.04645	2004.3125
3197.35725	2004.0125
3199.66667	2023.7125
3201.97469	2034.6125
3204.28132	2025.8125
3206.58656	2035.5125
3208.8904	2043.6125
3211.19287	2048.1125
3213.49394	2047.8125
3215.79363	2040.3125
3218.09193	2042.7125
3220.38884	2055.0125
3222.68438	2065.1125
3224.97853	2048.7125
3227.2713	2045.8125
3229.56269	2043.0125
3231.8527	2044.7125
3234.14133	2038.8125
3236.42858	2041.1125
3238.71446	2040.2125
3240.99896	2038.9125
3243.28209	2038.8125
3245.56384	2038.2125
3247.84423	2036.8125
3250.12324	2034.9125
3252.40088	2037.0125
3254.67715	2036.7125
3256.95205	2033.9125
3259.22558	2033.9125
3261.49775	2029.3125
3263.76855	2032.4125
3266.03799	2020.0125
3268.30606	2014.6125
3270.57277	2012.9125
3272.83812	2011.2125
3275.10211	2007.9125
3277.36474	2008.7125
3279.62601	2002.5125
3281.88593	2011.3125
3284.14448	2006.5125
3286.40168	2004.3125
3288.65753	1992.7125
3290.91202	1998.0125
3293.16516	1992.1125
3295.41695	1983.6125
3297.66738	1970.8125
3299.91647	1970.0125
3302.16421	1945.7125
3304.4106	1950.0125
3306.65564	1932.9125
3308.89933	1931.9125
3311.14169	1924.3125
3313.38269	1911.3125
3315.62236	1892.4125
3317.86068	1885.8125
3320.09766	1866.8125
3322.3333	1858.4125
3324.5676	1861.9125
3326.80056	1837.9125
3329.03219	1817.0125
3331.26248	-0.0875
3333.49143	0.6125
3335.71905	-0.0875
