Data from AgNPs_FTO_APTES_UA_0.1mM_CRN_200uM_NaF_0.1M_Addition_RamanShift__20__14-18-07-735.txt Node

Date: Mon Dec 20 14:18:07 GMT 2021
User: TCL
Spectrometer: QEP01345
Trigger mode: 4
Integration Time (sec): 7.000000E0
Scans to average: 10
Electric dark correction enabled: true
Nonlinearity correction enabled: false
Boxcar width: 0
XAxis mode: Raman Shifts
Number of Pixels in Spectrum: 1044
>>>>>Begin Spectral Data<<<<<
46.04893	-0.0875
50.45542	0.1125
54.85868	-1.5875
59.25871	1.5125
63.6555	25.7125
68.04907	27.2125
72.43941	31.8125
76.82654	33.0125
81.21044	33.9125
85.59113	37.7125
89.96862	34.1125
94.34289	37.8125
98.71396	36.9125
103.08183	38.0125
107.4465	41.1125
111.80798	40.3125
116.16626	41.7125
120.52136	45.0125
124.87327	44.8125
129.222	46.0125
133.56755	45.2125
137.90993	52.2125
142.24913	55.1125
146.58517	56.4125
150.91804	66.6125
155.24774	76.8125
159.57429	88.7125
163.89768	111.5125
168.21792	145.3125
172.53501	184.2125
176.84895	252.4125
181.15975	351.6125
185.46741	483.7125
189.77193	669.9125
194.07331	902.0125
198.37157	1178.3125
202.6667	1455.3125
206.9587	1761.4125
211.24758	2044.3125
215.53334	2343.5125
219.81599	2620.8125
224.09553	2946.4125
228.37195	3267.9125
232.64527	3612.1125
236.91549	3959.9125
241.18261	4289.5125
245.44663	4600.0125
249.70755	4882.6125
253.96539	5111.6125
258.22014	5293.2125
262.4718	5414.1125
266.72039	5465.7125
270.96589	5463.6125
275.20832	5419.2125
279.44768	5343.9125
283.68397	5264.1125
287.91719	5145.8125
292.14735	5077.4125
296.37445	5039.0125
300.59849	5014.9125
304.81948	4997.7125
309.03742	4964.4125
313.25231	4915.2125
317.46415	4847.0125
321.67296	4754.6125
325.87872	4704.1125
330.08145	4664.0125
334.28114	4651.5125
338.47781	4664.8125
342.67145	4696.3125
346.86207	4761.8125
351.04966	4829.9125
355.23424	4896.3125
359.4158	4969.8125
363.59435	5037.2125
367.76989	5093.3125
371.94243	5138.2125
376.11196	5187.4125
380.27849	5242.0125
384.44203	5287.6125
388.60257	5321.1125
392.76012	5361.6125
396.91468	5408.7125
401.06626	5462.5125
405.21485	5498.6125
409.36047	5517.0125
413.50311	5483.4125
417.64277	5444.1125
421.77947	5420.6125
425.9132	5420.7125
430.04396	5445.8125
434.17176	5459.7125
438.2966	5480.0125
442.41849	5516.4125
446.53742	5588.4125
450.6534	5644.3125
454.76644	5681.4125
458.87653	5724.5125
462.98368	5743.3125
467.08789	5736.3125
471.18916	5753.5125
475.2875	5780.7125
479.38291	5804.6125
483.4754	5879.8125
487.56496	5951.3125
491.6516	6040.0125
495.73531	6085.9125
499.81612	6073.2125
503.89401	6017.4125
507.96899	5955.7125
512.04106	5895.6125
516.11023	5884.1125
520.1765	5897.8125
524.23987	5923.4125
528.30034	5928.4125
532.35792	5935.1125
536.41261	5917.8125
540.46441	5828.2125
544.51333	5741.5125
548.55936	5709.9125
552.60252	5689.1125
556.64279	5719.2125
560.6802	5718.2125
564.71473	5759.1125
568.7464	5793.2125
572.7752	5873.6125
576.80114	5874.3125
580.82422	5900.6125
584.84444	5957.5125
588.86181	6015.4125
592.87633	6068.9125
596.888	6075.6125
600.89682	6056.4125
604.9028	6146.5125
608.90594	6418.4125
612.90624	6840.6125
616.90371	6862.1125
620.89834	6576.6125
624.89015	6594.5125
628.87913	6959.4125
632.86528	7347.8125
636.84862	7595.6125
640.82913	7543.5125
644.80683	7249.0125
648.78172	6867.0125
652.75379	6549.1125
656.72306	6383.8125
660.68952	6314.7125
664.65319	6324.6125
668.61405	6329.7125
672.57211	6386.3125
676.52738	6465.2125
680.47986	6524.9125
684.42955	6513.7125
688.37646	6468.8125
692.32058	6389.1125
696.26192	6305.5125
700.20048	6225.8125
704.13626	6161.8125
708.06928	6073.6125
711.99952	5960.5125
715.927	5887.6125
719.85171	5871.6125
723.77365	5885.3125
727.69284	5875.7125
731.60928	5854.1125
735.52295	5770.3125
739.43388	5729.7125
743.34206	5721.7125
747.24749	5726.7125
751.15017	5753.0125
755.05012	5770.8125
758.94733	5797.8125
762.8418	5904.0125
766.73354	6075.4125
770.62254	6266.6125
774.50882	6338.5125
778.39237	6229.1125
782.27321	6011.1125
786.15132	5827.3125
790.02671	5758.3125
793.89938	5731.5125
797.76935	5757.4125
801.6366	5826.8125
805.50115	5941.5125
809.36299	6104.4125
813.22213	6170.3125
817.07857	6111.5125
820.93231	5915.5125
824.78336	5705.8125
828.63172	5564.2125
832.47738	5464.8125
836.32036	5415.6125
840.16066	5388.0125
843.99827	5374.1125
847.8332	5344.4125
851.66546	5338.3125
855.49504	5348.5125
859.32195	5367.2125
863.1462	5402.5125
866.96777	5431.1125
870.78668	5502.3125
874.60293	5594.8125
878.41652	5682.7125
882.22745	5818.1125
886.03573	5884.1125
889.84136	5892.9125
893.64433	5801.3125
897.44466	5652.9125
901.24235	5488.8125
905.0374	5330.8125
908.8298	5254.7125
912.61957	5195.3125
916.40671	5170.1125
920.19121	5155.6125
923.97308	5177.8125
927.75233	5156.0125
931.52895	5145.4125
935.30295	5126.9125
939.07433	5101.2125
942.84309	5069.3125
946.60924	5067.6125
950.37278	5054.5125
954.13371	5018.0125
957.89203	5037.3125
961.64774	5004.8125
965.40086	4972.9125
969.15137	4977.4125
972.89929	4930.2125
976.64461	4915.1125
980.38733	4897.0125
984.12747	4880.7125
987.86502	4892.3125
991.59999	4930.0125
995.33237	4936.5125
999.06217	5008.5125
1002.78939	5069.8125
1006.51404	5125.4125
1010.23611	5201.4125
1013.95561	5254.8125
1017.67255	5285.1125
1021.38692	5238.8125
1025.09872	5186.7125
1028.80796	5101.5125
1032.51465	5045.3125
1036.21877	4995.7125
1039.92035	4967.5125
1043.61937	4961.3125
1047.31584	4952.6125
1051.00976	4961.4125
1054.70114	4990.6125
1058.38998	5024.6125
1062.07627	5056.8125
1065.76003	5122.4125
1069.44126	5162.0125
1073.11995	5206.6125
1076.79611	5223.4125
1080.46974	5180.3125
1084.14085	5130.7125
1087.80943	5076.5125
1091.47549	5036.8125
1095.13903	4974.1125
1098.80005	4956.7125
1102.45857	4930.1125
1106.11456	4924.0125
1109.76805	4914.8125
1113.41903	4994.6125
1117.06751	5135.1125
1120.71348	5307.8125
1124.35696	5600.4125
1127.99793	5950.5125
1131.63641	6309.4125
1135.2724	6514.1125
1138.90589	6533.9125
1142.5369	6376.9125
1146.16542	6089.8125
1149.79145	5785.9125
1153.415	5511.9125
1157.03607	5300.0125
1160.65467	5191.8125
1164.27079	5145.2125
1167.88443	5164.7125
1171.49561	5239.2125
1175.10432	5398.2125
1178.71056	5595.6125
1182.31434	5798.5125
1185.91565	5907.9125
1189.51451	5943.7125
1193.11091	5971.7125
1196.70485	5964.5125
1200.29634	6012.6125
1203.88538	6046.0125
1207.47197	5960.2125
1211.05612	5821.4125
1214.63782	5647.1125
1218.21708	5463.3125
1221.79391	5338.3125
1225.36829	5240.9125
1228.94024	5150.9125
1232.50976	5111.2125
1236.07685	5085.1125
1239.6415	5069.4125
1243.20374	5081.8125
1246.76355	5107.2125
1250.32093	5137.6125
1253.8759	5166.8125
1257.42845	5203.6125
1260.97859	5242.1125
1264.52631	5271.5125
1268.07163	5295.1125
1271.61453	5299.8125
1275.15503	5328.3125
1278.69312	5340.9125
1282.22882	5340.7125
1285.76211	5375.1125
1289.29301	5434.8125
1292.82151	5536.1125
1296.34761	5651.0125
1299.87133	5796.5125
1303.39266	5977.7125
1306.9116	6207.7125
1310.42815	6444.7125
1313.94233	6582.2125
1317.45412	6624.8125
1320.96354	6597.8125
1324.47058	6517.4125
1327.97525	6462.8125
1331.47754	6437.4125
1334.97747	6456.5125
1338.47502	6500.6125
1341.97022	6579.9125
1345.46305	6660.7125
1348.95352	6786.7125
1352.44163	6895.3125
1355.92738	7082.4125
1359.41078	7337.6125
1362.89183	7590.6125
1366.37053	7546.1125
1369.84688	7171.5125
1373.32088	6714.3125
1376.79254	6386.6125
1380.26186	6237.5125
1383.72883	6104.3125
1387.19347	6021.2125
1390.65578	5921.0125
1394.11575	5858.3125
1397.57339	5792.8125
1401.0287	5744.1125
1404.48168	5733.5125
1407.93234	5662.4125
1411.38068	5567.8125
1414.82669	5461.7125
1418.27039	5303.7125
1421.71177	5166.9125
1425.15083	5037.0125
1428.58758	4919.7125
1432.02203	4858.2125
1435.45416	4826.5125
1438.88399	4829.7125
1442.31151	4814.1125
1445.73673	4815.7125
1449.15965	4816.5125
1452.58027	4837.4125
1455.9986	4856.4125
1459.41463	4875.6125
1462.82837	4902.9125
1466.23982	4923.8125
1469.64898	4975.1125
1473.05586	4998.8125
1476.46045	5013.7125
1479.86276	5017.4125
1483.26279	5023.8125
1486.66054	5048.4125
1490.05602	5046.4125
1493.44922	5135.3125
1496.84016	5204.4125
1500.22882	5324.7125
1503.61521	5498.5125
1506.99934	5736.5125
1510.38121	5942.6125
1513.76081	6000.7125
1517.13816	5883.0125
1520.51324	5632.5125
1523.88607	5423.5125
1527.25665	5296.9125
1530.62498	5239.1125
1533.99105	5219.8125
1537.35488	5228.0125
1540.71647	5251.2125
1544.07581	5281.4125
1547.4329	5304.8125
1550.78776	5306.3125
1554.14038	5303.7125
1557.49077	5337.0125
1560.83892	5369.5125
1564.18484	5405.9125
1567.52853	5436.4125
1570.86999	5488.1125
1574.20922	5536.6125
1577.54624	5583.7125
1580.88103	5567.3125
1584.2136	5530.4125
1587.54395	5468.1125
1590.87208	5467.6125
1594.19801	5533.6125
1597.52172	5625.2125
1600.84321	5672.0125
1604.16251	5634.8125
1607.47959	5539.4125
1610.79447	5439.2125
1614.10715	5327.5125
1617.41763	5213.0125
1620.7259	5137.9125
1624.03199	5089.0125
1627.33587	5098.8125
1630.63757	5117.4125
1633.93707	5180.6125
1637.23439	5316.3125
1640.52951	5525.9125
1643.82246	5767.3125
1647.11321	6014.1125
1650.40179	6202.7125
1653.68819	6167.6125
1656.97241	5928.7125
1660.25446	5604.2125
1663.53433	5397.6125
1666.81203	5232.9125
1670.08756	5144.6125
1673.36092	5079.6125
1676.63211	5037.7125
1679.90115	4996.7125
1683.16801	4932.8125
1686.43272	4857.7125
1689.69527	4777.6125
1692.95567	4657.5125
1696.2139	4552.6125
1699.46999	4443.0125
1702.72392	4323.9125
1705.97571	4215.8125
1709.22535	4116.9125
1712.47284	4050.4125
1715.71819	4007.5125
1718.96139	3956.1125
1722.20246	3903.2125
1725.44139	3874.5125
1728.67818	3818.6125
1731.91284	3768.6125
1735.14537	3728.4125
1738.37576	3701.9125
1741.60403	3698.2125
1744.83017	3659.3125
1748.05418	3668.8125
1751.27607	3662.8125
1754.49584	3660.8125
1757.71349	3664.5125
1760.92903	3638.3125
1764.14244	3627.8125
1767.35375	3595.0125
1770.56294	3562.7125
1773.77002	3502.9125
1776.97499	3480.3125
1780.17785	3447.8125
1783.37861	3401.0125
1786.57727	3367.6125
1789.77382	3342.0125
1792.96828	3310.5125
1796.16064	3295.2125
1799.3509	3260.2125
1802.53907	3254.9125
1805.72514	3236.5125
1808.90913	3217.7125
1812.09102	3210.8125
1815.27083	3201.7125
1818.44856	3190.4125
1821.6242	3180.3125
1824.79776	3161.6125
1827.96924	3163.2125
1831.13864	3154.4125
1834.30597	3143.7125
1837.47122	3130.5125
1840.6344	3140.0125
1843.7955	3131.2125
1846.95454	3128.2125
1850.11151	3118.5125
1853.26642	3096.0125
1856.41926	3104.2125
1859.57004	3104.1125
1862.71876	3103.8125
1865.86542	3095.2125
1869.01003	3084.4125
1872.15258	3070.8125
1875.29308	3074.0125
1878.43152	3055.4125
1881.56792	3061.4125
1884.70227	3049.1125
1887.83457	3037.4125
1890.96482	3043.6125
1894.09304	3041.4125
1897.21921	3021.1125
1900.34335	3010.6125
1903.46544	3019.8125
1906.58551	3011.6125
1909.70353	3003.1125
1912.81953	2995.3125
1915.93349	2982.6125
1919.04543	2963.6125
1922.15534	2976.8125
1925.26322	2961.3125
1928.36908	2961.3125
1931.47292	2941.9125
1934.57473	2937.1125
1937.67453	2925.4125
1940.77232	2924.0125
1943.86808	2920.7125
1946.96184	2907.0125
1950.05358	2900.4125
1953.14331	2886.0125
1956.23103	2871.5125
1959.31675	2861.6125
1962.40046	2862.6125
1965.48217	2846.6125
1968.56188	2835.4125
1971.63959	2823.8125
1974.7153	2799.2125
1977.78901	2797.8125
1980.86073	2793.9125
1983.93046	2791.3125
1986.99819	2767.5125
1990.06394	2763.0125
1993.1277	2754.3125
1996.18947	2749.0125
1999.24925	2752.6125
2002.30706	2739.9125
2005.36288	2721.9125
2008.41672	2707.7125
2011.46859	2714.1125
2014.51848	2701.3125
2017.56639	2680.6125
2020.61233	2674.5125
2023.6563	2677.8125
2026.6983	2657.1125
2029.73833	2645.8125
2032.7764	2641.3125
2035.8125	2633.5125
2038.84664	2624.5125
2041.87881	2624.9125
2044.90903	2612.6125
2047.93729	2616.8125
2050.96359	2602.9125
2053.98794	2614.4125
2057.01034	2591.0125
2060.03078	2600.4125
2063.04927	2592.2125
2066.06582	2597.2125
2069.08042	2590.4125
2072.09307	2589.2125
2075.10378	2587.3125
2078.11255	2586.9125
2081.11938	2579.0125
2084.12426	2567.7125
2087.12722	2563.4125
2090.12824	2581.0125
2093.12732	2560.4125
2096.12447	2570.1125
2099.11969	2567.6125
2102.11299	2566.8125
2105.10435	2559.9125
2108.09379	2563.5125
2111.08131	2566.8125
2114.0669	2553.0125
2117.05057	2567.7125
2120.03233	2566.0125
2123.01216	2568.4125
2125.99008	2568.2125
2128.96609	2567.6125
2131.94018	2567.3125
2134.91236	2562.8125
2137.88263	2563.1125
2140.851	2563.6125
2143.81746	2563.8125
2146.78201	2566.0125
2149.74466	2560.5125
2152.7054	2562.4125
2155.66425	2555.0125
2158.6212	2553.0125
2161.57625	2554.1125
2164.52941	2557.0125
2167.48067	2552.4125
2170.43004	2555.5125
2173.37752	2543.2125
2176.32311	2541.7125
2179.26681	2533.9125
2182.20863	2529.7125
2185.14856	2537.2125
2188.08661	2535.1125
2191.02278	2534.9125
2193.95707	2531.1125
2196.88948	2531.8125
2199.82001	2517.8125
2202.74867	2508.5125
2205.67545	2507.4125
2208.60037	2497.8125
2211.52341	2496.5125
2214.44458	2492.1125
2217.36388	2488.9125
2220.28132	2476.5125
2223.1969	2459.9125
2226.11061	2479.7125
2229.02246	2467.0125
2231.93245	2465.6125
2234.84058	2440.3125
2237.74686	2443.7125
2240.65128	2436.5125
2243.55385	2435.9125
2246.45456	2431.8125
2249.35343	2427.3125
2252.25044	2428.1125
2255.14561	2408.3125
2258.03893	2416.5125
2260.93041	2417.5125
2263.82004	2403.1125
2266.70783	2389.0125
2269.59378	2391.6125
2272.4779	2375.1125
2275.36017	2368.2125
2278.24061	2371.5125
2281.11922	2359.8125
2283.996	2356.8125
2286.87094	2353.0125
2289.74405	2347.6125
2292.61534	2343.2125
2295.4848	2328.8125
2298.35243	2330.6125
2301.21824	2315.4125
2304.08223	2320.1125
2306.94439	2330.1125
2309.80474	2317.2125
2312.66327	2319.6125
2315.51999	2311.2125
2318.37489	2296.6125
2321.22797	2300.4125
2324.07925	2302.8125
2326.92871	2300.5125
2329.77637	2291.6125
2332.62222	2290.7125
2335.46626	2282.5125
2338.3085	2280.0125
2341.14893	2274.0125
2343.98756	2260.0125
2346.8244	2255.4125
2349.65943	2263.7125
2352.49267	2257.1125
2355.32411	2250.9125
2358.15376	2256.2125
2360.98161	2246.3125
2363.80768	2243.7125
2366.63195	2245.8125
2369.45444	2233.5125
2372.27514	2232.1125
2375.09405	2240.4125
2377.91118	2225.8125
2380.72652	2223.1125
2383.54009	2233.1125
2386.35187	2226.3125
2389.16188	2208.5125
2391.97011	2206.6125
2394.77657	2204.8125
2397.58125	2191.8125
2400.38416	2190.5125
2403.18529	2181.6125
2405.98466	2188.0125
2408.78226	2191.5125
2411.57809	2167.1125
2414.37216	2160.4125
2417.16446	2175.3125
2419.955	2161.2125
2422.74378	2157.8125
2425.5308	2158.9125
2428.31606	2140.3125
2431.09956	2139.7125
2433.88131	2151.5125
2436.6613	2140.1125
2439.43954	2139.9125
2442.21603	2126.9125
2444.99077	2128.0125
2447.76377	2123.4125
2450.53501	2115.4125
2453.30451	2124.0125
2456.07226	2114.2125
2458.83827	2117.1125
2461.60254	2101.1125
2464.36507	2093.1125
2467.12586	2093.7125
2469.88492	2100.0125
2472.64224	2089.2125
2475.39782	2095.2125
2478.15167	2091.8125
2480.90379	2083.0125
2483.65417	2087.4125
2486.40283	2078.5125
2489.14976	2082.9125
2491.89497	2083.6125
2494.63845	2084.2125
2497.3802	2068.6125
2500.12024	2072.3125
2502.85855	2072.8125
2505.59514	2074.3125
2508.33002	2066.4125
2511.06318	2069.0125
2513.79462	2061.1125
2516.52435	2046.1125
2519.25237	2039.2125
2521.97867	2037.2125
2524.70327	2031.1125
2527.42616	2038.2125
2530.14734	2028.4125
2532.86681	2027.3125
2535.58458	2026.6125
2538.30065	2015.3125
2541.01501	2009.5125
2543.72768	2010.9125
2546.43864	2000.5125
2549.14791	1995.8125
2551.85548	1990.3125
2554.56136	1993.6125
2557.26554	1983.6125
2559.96803	1981.2125
2562.66883	1982.3125
2565.36794	1969.7125
2568.06536	1980.7125
2570.7611	1967.0125
2573.45514	1967.1125
2576.14751	1969.5125
2578.83819	1958.2125
2581.52719	1956.4125
2584.21451	1941.3125
2586.90015	1945.8125
2589.58411	1951.2125
2592.2664	1932.4125
2594.94701	1932.5125
2597.62594	1928.1125
2600.30321	1923.8125
2602.9788	1918.9125
2605.65273	1915.3125
2608.32498	1918.1125
2610.99557	1908.2125
2613.66449	1902.9125
2616.33175	1902.4125
2618.99734	1894.8125
2621.66128	1902.1125
2624.32355	1889.7125
2626.98416	1890.2125
2629.64311	1885.1125
2632.30041	1896.4125
2634.95605	1885.8125
2637.61004	1879.0125
2640.26238	1881.2125
2642.91306	1870.2125
2645.56209	1869.5125
2648.20948	1876.3125
2650.85521	1872.7125
2653.4993	1871.4125
2656.14175	1867.9125
2658.78255	1864.2125
2661.42171	1860.3125
2664.05923	1859.3125
2666.6951	1860.3125
2669.32934	1853.8125
2671.96194	1855.3125
2674.59291	1850.5125
2677.22224	1866.6125
2679.84993	1863.5125
2682.476	1857.2125
2685.10043	1860.0125
2687.72324	1859.3125
2690.34441	1859.7125
2692.96396	1852.2125
2695.58188	1865.9125
2698.19818	1857.5125
2700.81285	1862.7125
2703.4259	1857.2125
2706.03733	1892.1125
2708.64714	1885.2125
2711.25533	1867.2125
2713.86191	1859.7125
2716.46687	1857.1125
2719.07021	1863.0125
2721.67194	1863.9125
2724.27206	1856.9125
2726.87057	1861.7125
2729.46747	1860.0125
2732.06276	1848.1125
2734.65644	1850.7125
2737.24852	1845.5125
2739.83899	1848.6125
2742.42786	1843.1125
2745.01513	1834.1125
2747.60079	1841.3125
2750.18486	1829.8125
2752.76733	1821.9125
2755.3482	1831.9125
2757.92747	1825.1125
2760.50515	1825.4125
2763.08123	1830.0125
2765.65573	1810.8125
2768.22863	1825.3125
2770.79994	1808.2125
2773.36967	1814.1125
2775.9378	1810.7125
2778.50435	1814.8125
2781.06932	1797.0125
2783.6327	1802.9125
2786.1945	1802.6125
2788.75471	1795.3125
2791.31335	1798.6125
2793.87041	1783.4125
2796.42589	1785.7125
2798.97979	1782.2125
2801.53212	1774.0125
2804.08288	1778.5125
2806.63206	1780.2125
2809.17967	1762.4125
2811.72571	1771.1125
2814.27018	1761.2125
2816.81308	1762.8125
2819.35442	1759.2125
2821.89419	1751.9125
2824.43239	1760.2125
2826.96904	1758.1125
2829.50412	1755.0125
2832.03763	1752.9125
2834.56959	1758.8125
2837.1	1748.9125
2839.62884	1754.4125
2842.15613	1752.7125
2844.68186	1759.9125
2847.20604	1748.6125
2849.72867	1741.8125
2852.24974	1750.8125
2854.76927	1752.0125
2857.28724	1758.9125
2859.80367	1747.4125
2862.31855	1747.2125
2864.83189	1737.7125
2867.34368	1739.0125
2869.85393	1741.1125
2872.36264	1747.7125
2874.8698	1751.2125
2877.37543	1754.4125
2879.87952	1751.7125
2882.38207	1757.7125
2884.88308	1747.6125
2887.38256	1752.4125
2889.88051	1760.6125
2892.37692	1759.7125
2894.8718	1756.1125
2897.36515	1764.8125
2899.85698	1766.2125
2902.34727	1779.6125
2904.83604	1772.8125
2907.32328	1782.7125
2909.809	1795.0125
2912.29319	1790.8125
2914.77587	1790.7125
2917.25702	1789.6125
2919.73665	1805.8125
2922.21476	1794.5125
2924.69136	1795.5125
2927.16644	1813.3125
2929.64	1799.6125
2932.11205	1806.1125
2934.58258	1810.4125
2937.05161	1806.2125
2939.51912	1817.2125
2941.98513	1811.9125
2944.44962	1806.3125
2946.91261	1807.3125
2949.37409	1812.5125
2951.83407	1807.1125
2954.29254	1803.0125
2956.74951	1798.7125
2959.20498	1802.6125
2961.65895	1786.5125
2964.11142	1792.1125
2966.56239	1778.7125
2969.01186	1772.6125
2971.45984	1766.3125
2973.90632	1763.2125
2976.35131	1747.4125
2978.7948	1748.5125
2981.23681	1738.5125
2983.67732	1732.6125
2986.11635	1740.7125
2988.55388	1736.4125
2990.98993	1727.1125
2993.4245	1720.1125
2995.85758	1710.5125
2998.28917	1724.0125
3000.71928	1725.3125
3003.14791	1713.8125
3005.57506	1715.6125
3008.00073	1715.0125
3010.42493	1721.0125
3012.84764	1718.6125
3015.26888	1720.8125
3017.68865	1715.7125
3020.10694	1717.5125
3022.52376	1714.0125
3024.9391	1712.7125
3027.35298	1703.8125
3029.76539	1711.0125
3032.17632	1715.0125
3034.5858	1711.3125
3036.9938	1711.8125
3039.40034	1712.6125
3041.80542	1701.6125
3044.20903	1689.6125
3046.61118	1697.5125
3049.01187	1699.7125
3051.4111	1700.0125
3053.80888	1708.2125
3056.20519	1697.6125
3058.60005	1701.0125
3060.99345	1700.0125
3063.3854	1693.4125
3065.7759	1692.9125
3068.16494	1695.4125
3070.55254	1700.7125
3072.93868	1706.7125
3075.32338	1703.7125
3077.70662	1709.8125
3080.08842	1700.7125
3082.46878	1720.1125
3084.84769	1711.5125
3087.22515	1708.2125
3089.60118	1728.5125
3091.97576	1724.3125
3094.3489	1722.3125
3096.72061	1730.3125
3099.09087	1743.3125
3101.4597	1740.8125
3103.82709	1740.6125
3106.19305	1741.0125
3108.55757	1748.0125
3110.92066	1749.6125
3113.28232	1751.4125
3115.64255	1752.2125
3118.00134	1749.3125
3120.35871	1763.4125
3122.71466	1769.3125
3125.06917	1769.3125
3127.42226	1755.7125
3129.77393	1772.7125
3132.12417	1788.5125
3134.47299	1778.8125
3136.82039	1791.5125
3139.16636	1796.3125
3141.51092	1807.8125
3143.85406	1815.8125
3146.19579	1824.6125
3148.53609	1819.6125
3150.87499	1831.1125
3153.21246	1843.8125
3155.54853	1855.5125
3157.88318	1857.9125
3160.21642	1864.4125
3162.54826	1870.4125
3164.87868	1872.1125
3167.2077	1891.3125
3169.5353	1886.8125
3171.86151	1901.1125
3174.18631	1898.2125
3176.5097	1903.2125
3178.83169	1905.5125
3181.15228	1909.8125
3183.47147	1910.7125
3185.78926	1917.0125
3188.10565	1915.9125
3190.42065	1930.4125
3192.73424	1931.6125
3195.04645	1932.5125
3197.35725	1936.8125
3199.66667	1944.9125
3201.97469	1952.4125
3204.28132	1967.1125
3206.58656	1964.6125
3208.8904	1972.8125
3211.19287	1974.3125
3213.49394	1980.7125
3215.79363	1974.9125
3218.09193	1984.4125
3220.38884	2004.1125
3222.68438	1996.2125
3224.97853	1988.2125
3227.2713	1987.9125
3229.56269	1994.8125
3231.8527	2007.5125
3234.14133	1991.8125
3236.42858	1994.4125
3238.71446	1990.8125
3240.99896	1988.4125
3243.28209	1996.0125
3245.56384	1991.4125
3247.84423	1995.4125
3250.12324	1990.3125
3252.40088	1998.5125
3254.67715	1991.8125
3256.95205	2000.2125
3259.22558	1996.5125
3261.49775	1985.0125
3263.76855	1991.2125
3266.03799	1990.3125
3268.30606	1986.9125
3270.57277	1985.0125
3272.83812	1980.1125
3275.10211	1968.4125
3277.36474	1984.9125
3279.62601	1984.3125
3281.88593	1978.1125
3284.14448	1985.1125
3286.40168	1979.3125
3288.65753	1977.6125
3290.91202	1969.4125
3293.16516	1959.3125
3295.41695	1960.4125
3297.66738	1956.7125
3299.91647	1953.2125
3302.16421	1934.7125
3304.4106	1931.1125
3306.65564	1936.3125
3308.89933	1914.4125
3311.14169	1897.3125
3313.38269	1897.0125
3315.62236	1879.9125
3317.86068	1861.8125
3320.09766	1857.4125
3322.3333	1834.4125
3324.5676	1845.5125
3326.80056	1819.2125
3329.03219	1812.2125
3331.26248	0.8125
3333.49143	1.6125
3335.71905	-1.0875
