Data from AgNPs_FTO_APTES_UA_0.1mM_CRN_100uM_NaF_0.1M_Addition_RamanShift__28__13-48-57-702.txt Node

Date: Mon Dec 20 13:48:57 GMT 2021
User: TCL
Spectrometer: QEP01345
Trigger mode: 4
Integration Time (sec): 7.000000E0
Scans to average: 10
Electric dark correction enabled: true
Nonlinearity correction enabled: false
Boxcar width: 0
XAxis mode: Raman Shifts
Number of Pixels in Spectrum: 1044
>>>>>Begin Spectral Data<<<<<
46.04893	0.35
50.45542	-0.05
54.85868	-1.35
59.25871	1.25
63.6555	24.55
68.04907	30.55
72.43941	32.65
76.82654	33.25
81.21044	33.95
85.59113	39.75
89.96862	36.65
94.34289	39.15
98.71396	40.05
103.08183	38.85
107.4465	40.65
111.80798	45.15
116.16626	43.85
120.52136	42.45
124.87327	48.05
129.222	46.85
133.56755	47.55
137.90993	52.15
142.24913	53.55
146.58517	58.05
150.91804	71.95
155.24774	82.15
159.57429	97.05
163.89768	121.55
168.21792	157.25
172.53501	196.85
176.84895	269.85
181.15975	375.05
185.46741	509.25
189.77193	705.65
194.07331	943.85
198.37157	1224.95
202.6667	1517.85
206.9587	1808.55
211.24758	2099.25
215.53334	2385.95
219.81599	2675.95
224.09553	2998.35
228.37195	3333.35
232.64527	3692.35
236.91549	4074.15
241.18261	4433.45
245.44663	4746.45
249.70755	4994.45
253.96539	5229.35
258.22014	5406.05
262.4718	5495.55
266.72039	5556.25
270.96589	5548.75
275.20832	5501.55
279.44768	5435.05
283.68397	5328.75
287.91719	5260.15
292.14735	5240.55
296.37445	5274.65
300.59849	5381.45
304.81948	5492.25
309.03742	5575.25
313.25231	5530.95
317.46415	5373.25
321.67296	5100.55
325.87872	4837.75
330.08145	4683.05
334.28114	4663.85
338.47781	4714.95
342.67145	4789.85
346.86207	4926.35
351.04966	5110.05
355.23424	5365.75
359.4158	5523.35
363.59435	5625.25
367.76989	5701.65
371.94243	5746.35
376.11196	5777.15
380.27849	5802.35
384.44203	5817.25
388.60257	5804.85
392.76012	5805.75
396.91468	5883.25
401.06626	5939.65
405.21485	6009.45
409.36047	5958.35
413.50311	5747.45
417.64277	5522.65
421.77947	5376.45
425.9132	5317.95
430.04396	5292.85
434.17176	5306.15
438.2966	5368.45
442.41849	5434.65
446.53742	5537.05
450.6534	5649.95
454.76644	5701.55
458.87653	5722.05
462.98368	5695.05
467.08789	5662.75
471.18916	5633.85
475.2875	5611.35
479.38291	5629.15
483.4754	5689.95
487.56496	5818.05
491.6516	5939.85
495.73531	6019.95
499.81612	5946.45
503.89401	5859.25
507.96899	5778.25
512.04106	5809.45
516.11023	5890.75
520.1765	6029.25
524.23987	6139.05
528.30034	6180.95
532.35792	6140.25
536.41261	5998.05
540.46441	5802.15
544.51333	5638.25
548.55936	5526.65
552.60252	5516.15
556.64279	5559.15
560.6802	5606.35
564.71473	5666.55
568.7464	5808.55
572.7752	5895.85
576.80114	5821.55
580.82422	5719.55
584.84444	5755.85
588.86181	5843.85
592.87633	5913.05
596.888	5967.05
600.89682	6020.55
604.9028	6385.45
608.90594	7397.45
612.90624	8906.55
616.90371	9121.75
620.89834	7866.55
624.89015	7562.25
628.87913	8056.65
632.86528	8632.35
636.84862	8942.85
640.82913	8656.65
644.80683	7944.35
648.78172	7210.45
652.75379	6681.75
656.72306	6428.65
660.68952	6361.95
664.65319	6207.15
668.61405	6024.35
672.57211	5910.75
676.52738	5919.15
680.47986	5925.85
684.42955	5896.25
688.37646	5879.75
692.32058	5864.65
696.26192	5850.95
700.20048	5827.95
704.13626	5815.75
708.06928	5759.05
711.99952	5671.05
715.927	5677.05
719.85171	5740.15
723.77365	5811.35
727.69284	5807.25
731.60928	5716.45
735.52295	5626.45
739.43388	5564.05
743.34206	5568.15
747.24749	5591.05
751.15017	5626.45
755.05012	5666.15
758.94733	5820.55
762.8418	6135.35
766.73354	6686.05
770.62254	7263.25
774.50882	7569.95
778.39237	7394.25
782.27321	6799.45
786.15132	6204.05
790.02671	5901.45
793.89938	5805.25
797.76935	5880.55
801.6366	6076.15
805.50115	6456.75
809.36299	6907.75
813.22213	7087.55
817.07857	6887.55
820.93231	6482.05
824.78336	6028.35
828.63172	5721.65
832.47738	5558.05
836.32036	5468.25
840.16066	5411.45
843.99827	5373.55
847.8332	5369.05
851.66546	5319.25
855.49504	5335.85
859.32195	5348.75
863.1462	5390.15
866.96777	5484.75
870.78668	5665.85
874.60293	5905.55
878.41652	6213.45
882.22745	6531.15
886.03573	6713.95
889.84136	6673.75
893.64433	6427.05
897.44466	6074.95
901.24235	5751.65
905.0374	5463.65
908.8298	5284.65
912.61957	5195.15
916.40671	5139.95
920.19121	5110.95
923.97308	5122.55
927.75233	5116.05
931.52895	5142.95
935.30295	5104.45
939.07433	5054.35
942.84309	4985.55
946.60924	4950.55
950.37278	4948.95
954.13371	4932.95
957.89203	4921.45
961.64774	4916.15
965.40086	4875.95
969.15137	4868.15
972.89929	4854.75
976.64461	4837.55
980.38733	4836.95
984.12747	4874.65
987.86502	4890.55
991.59999	4927.95
995.33237	5017.45
999.06217	5161.65
1002.78939	5361.25
1006.51404	5535.65
1010.23611	5737.95
1013.95561	5888.15
1017.67255	5905.75
1021.38692	5834.25
1025.09872	5666.75
1028.80796	5484.45
1032.51465	5300.75
1036.21877	5217.65
1039.92035	5134.75
1043.61937	5125.05
1047.31584	5104.05
1051.00976	5105.45
1054.70114	5167.35
1058.38998	5199.15
1062.07627	5329.45
1065.76003	5397.85
1069.44126	5449.05
1073.11995	5504.05
1076.79611	5472.45
1080.46974	5449.85
1084.14085	5437.75
1087.80943	5402.35
1091.47549	5370.05
1095.13903	5283.95
1098.80005	5174.55
1102.45857	5124.15
1106.11456	5129.15
1109.76805	5196.05
1113.41903	5330.15
1117.06751	5592.55
1120.71348	5960.25
1124.35696	6493.15
1127.99793	7089.25
1131.63641	7623.25
1135.2724	7846.45
1138.90589	7805.75
1142.5369	7557.65
1146.16542	7049.25
1149.79145	6527.95
1153.415	6046.25
1157.03607	5705.05
1160.65467	5534.15
1164.27079	5494.85
1167.88443	5540.95
1171.49561	5733.65
1175.10432	6145.85
1178.71056	6665.15
1182.31434	7157.55
1185.91565	7431.85
1189.51451	7512.15
1193.11091	7574.45
1196.70485	7729.75
1200.29634	7910.05
1203.88538	7958.55
1207.47197	7752.75
1211.05612	7322.55
1214.63782	6855.65
1218.21708	6396.85
1221.79391	6033.55
1225.36829	5777.05
1228.94024	5626.35
1232.50976	5511.25
1236.07685	5464.55
1239.6415	5463.65
1243.20374	5491.05
1246.76355	5547.25
1250.32093	5583.65
1253.8759	5633.35
1257.42845	5696.95
1260.97859	5766.35
1264.52631	5844.15
1268.07163	5882.65
1271.61453	5919.45
1275.15503	5948.75
1278.69312	5930.75
1282.22882	5945.15
1285.76211	6003.45
1289.29301	6126.35
1292.82151	6276.45
1296.34761	6461.65
1299.87133	6726.15
1303.39266	7167.45
1306.9116	7795.75
1310.42815	8458.25
1313.94233	8802.05
1317.45412	8635.75
1320.96354	8249.45
1324.47058	7901.25
1327.97525	7597.95
1331.47754	7476.95
1334.97747	7489.45
1338.47502	7638.65
1341.97022	7864.05
1345.46305	8181.05
1348.95352	8571.05
1352.44163	9021.05
1355.92738	9673.05
1359.41078	10580.95
1362.89183	11322.65
1366.37053	10935.95
1369.84688	9715.15
1373.32088	8606.65
1376.79254	7889.15
1380.26186	7450.85
1383.72883	7189.25
1387.19347	6997.65
1390.65578	6825.25
1394.11575	6674.45
1397.57339	6599.75
1401.0287	6560.65
1404.48168	6497.55
1407.93234	6400.05
1411.38068	6306.15
1414.82669	6121.25
1418.27039	5954.85
1421.71177	5777.95
1425.15083	5614.35
1428.58758	5496.25
1432.02203	5472.05
1435.45416	5447.05
1438.88399	5444.85
1442.31151	5418.05
1445.73673	5423.65
1449.15965	5433.65
1452.58027	5444.15
1455.9986	5418.85
1459.41463	5402.35
1462.82837	5436.65
1466.23982	5532.05
1469.64898	5593.05
1473.05586	5633.85
1476.46045	5660.25
1479.86276	5716.65
1483.26279	5799.65
1486.66054	5903.55
1490.05602	6084.75
1493.44922	6321.55
1496.84016	6666.35
1500.22882	7158.75
1503.61521	7862.95
1506.99934	8610.15
1510.38121	9223.25
1513.76081	9299.55
1517.13816	8735.75
1520.51324	7842.35
1523.88607	7091.95
1527.25665	6630.05
1530.62498	6418.05
1533.99105	6330.35
1537.35488	6325.25
1540.71647	6377.15
1544.07581	6434.65
1547.4329	6518.45
1550.78776	6565.15
1554.14038	6582.15
1557.49077	6611.85
1560.83892	6631.25
1564.18484	6713.95
1567.52853	6828.85
1570.86999	6931.45
1574.20922	7014.35
1577.54624	7020.35
1580.88103	6864.55
1584.2136	6640.75
1587.54395	6513.75
1590.87208	6528.55
1594.19801	6673.45
1597.52172	6946.65
1600.84321	7107.15
1604.16251	7067.65
1607.47959	6916.45
1610.79447	6731.85
1614.10715	6511.55
1617.41763	6342.35
1620.7259	6237.35
1624.03199	6159.35
1627.33587	6158.55
1630.63757	6189.45
1633.93707	6318.65
1637.23439	6526.85
1640.52951	6887.55
1643.82246	7421.65
1647.11321	8028.75
1650.40179	8490.25
1653.68819	8405.05
1656.97241	7789.85
1660.25446	7064.25
1663.53433	6546.65
1666.81203	6164.05
1670.08756	5892.75
1673.36092	5726.35
1676.63211	5574.45
1679.90115	5470.75
1683.16801	5348.65
1686.43272	5256.35
1689.69527	5154.05
1692.95567	5081.25
1696.2139	4989.45
1699.46999	4909.45
1702.72392	4800.15
1705.97571	4697.45
1709.22535	4592.05
1712.47284	4546.45
1715.71819	4497.25
1718.96139	4430.75
1722.20246	4390.55
1725.44139	4365.95
1728.67818	4298.15
1731.91284	4258.45
1735.14537	4216.65
1738.37576	4185.15
1741.60403	4171.25
1744.83017	4140.15
1748.05418	4137.85
1751.27607	4122.05
1754.49584	4093.75
1757.71349	4080.75
1760.92903	4070.05
1764.14244	4042.45
1767.35375	3998.55
1770.56294	3980.95
1773.77002	3946.55
1776.97499	3925.05
1780.17785	3900.25
1783.37861	3886.35
1786.57727	3877.05
1789.77382	3841.65
1792.96828	3832.05
1796.16064	3813.25
1799.3509	3792.55
1802.53907	3784.85
1805.72514	3773.15
1808.90913	3757.65
1812.09102	3746.65
1815.27083	3738.15
1818.44856	3722.85
1821.6242	3715.75
1824.79776	3686.95
1827.96924	3718.05
1831.13864	3699.35
1834.30597	3685.25
1837.47122	3688.25
1840.6344	3676.95
1843.7955	3675.35
1846.95454	3667.15
1850.11151	3653.55
1853.26642	3664.35
1856.41926	3655.35
1859.57004	3654.65
1862.71876	3666.75
1865.86542	3650.35
1869.01003	3635.95
1872.15258	3628.95
1875.29308	3634.25
1878.43152	3622.65
1881.56792	3622.15
1884.70227	3612.05
1887.83457	3589.95
1890.96482	3589.25
1894.09304	3601.45
1897.21921	3584.75
1900.34335	3586.95
1903.46544	3571.95
1906.58551	3571.85
1909.70353	3563.25
1912.81953	3572.25
1915.93349	3561.85
1919.04543	3558.45
1922.15534	3553.85
1925.26322	3529.85
1928.36908	3530.95
1931.47292	3506.05
1934.57473	3504.05
1937.67453	3495.45
1940.77232	3480.65
1943.86808	3487.65
1946.96184	3468.15
1950.05358	3453.35
1953.14331	3439.25
1956.23103	3437.55
1959.31675	3435.45
1962.40046	3413.85
1965.48217	3404.15
1968.56188	3415.65
1971.63959	3387.35
1974.7153	3379.45
1977.78901	3369.15
1980.86073	3352.35
1983.93046	3331.05
1986.99819	3346.15
1990.06394	3324.55
1993.1277	3314.25
1996.18947	3309.65
1999.24925	3303.85
2002.30706	3281.55
2005.36288	3278.55
2008.41672	3264.15
2011.46859	3258.35
2014.51848	3261.15
2017.56639	3217.05
2020.61233	3219.85
2023.6563	3231.85
2026.6983	3217.75
2029.73833	3209.25
2032.7764	3195.85
2035.8125	3205.55
2038.84664	3177.65
2041.87881	3189.95
2044.90903	3170.25
2047.93729	3163.85
2050.96359	3164.75
2053.98794	3171.95
2057.01034	3156.95
2060.03078	3150.35
2063.04927	3146.15
2066.06582	3144.65
2069.08042	3158.25
2072.09307	3148.35
2075.10378	3145.45
2078.11255	3135.65
2081.11938	3129.65
2084.12426	3131.15
2087.12722	3136.85
2090.12824	3131.15
2093.12732	3127.25
2096.12447	3133.15
2099.11969	3128.35
2102.11299	3131.25
2105.10435	3126.85
2108.09379	3112.75
2111.08131	3136.55
2114.0669	3129.25
2117.05057	3132.55
2120.03233	3137.25
2123.01216	3142.75
2125.99008	3141.15
2128.96609	3141.65
2131.94018	3140.25
2134.91236	3157.55
2137.88263	3146.95
2140.851	3155.55
2143.81746	3156.15
2146.78201	3145.75
2149.74466	3147.35
2152.7054	3141.45
2155.66425	3146.65
2158.6212	3139.25
2161.57625	3144.95
2164.52941	3127.15
2167.48067	3143.05
2170.43004	3144.05
2173.37752	3134.95
2176.32311	3118.35
2179.26681	3134.65
2182.20863	3130.05
2185.14856	3135.55
2188.08661	3121.45
2191.02278	3135.35
2193.95707	3105.45
2196.88948	3103.25
2199.82001	3108.25
2202.74867	3107.35
2205.67545	3111.35
2208.60037	3101.95
2211.52341	3094.15
2214.44458	3087.65
2217.36388	3088.25
2220.28132	3080.75
2223.1969	3050.25
2226.11061	3047.95
2229.02246	3041.15
2231.93245	3042.15
2234.84058	3040.55
2237.74686	3037.35
2240.65128	3028.45
2243.55385	3029.65
2246.45456	3021.35
2249.35343	3017.25
2252.25044	3014.95
2255.14561	3003.65
2258.03893	3000.95
2260.93041	3017.85
2263.82004	2996.75
2266.70783	2981.85
2269.59378	2986.65
2272.4779	2982.55
2275.36017	2973.35
2278.24061	2950.65
2281.11922	2957.95
2283.996	2960.35
2286.87094	2947.25
2289.74405	2939.75
2292.61534	2931.75
2295.4848	2924.95
2298.35243	2922.35
2301.21824	2920.35
2304.08223	2912.15
2306.94439	2916.05
2309.80474	2905.85
2312.66327	2898.65
2315.51999	2903.55
2318.37489	2899.25
2321.22797	2912.35
2324.07925	2892.95
2326.92871	2897.45
2329.77637	2888.45
2332.62222	2884.65
2335.46626	2870.25
2338.3085	2868.45
2341.14893	2856.45
2343.98756	2867.45
2346.8244	2865.25
2349.65943	2861.75
2352.49267	2855.05
2355.32411	2861.75
2358.15376	2852.75
2360.98161	2849.45
2363.80768	2860.85
2366.63195	2856.25
2369.45444	2857.65
2372.27514	2853.95
2375.09405	2860.25
2377.91118	2851.55
2380.72652	2836.45
2383.54009	2832.95
2386.35187	2819.95
2389.16188	2809.55
2391.97011	2817.65
2394.77657	2805.45
2397.58125	2797.45
2400.38416	2789.65
2403.18529	2789.45
2405.98466	2785.85
2408.78226	2784.45
2411.57809	2776.75
2414.37216	2769.95
2417.16446	2767.65
2419.955	2751.05
2422.74378	2753.45
2425.5308	2732.85
2428.31606	2744.05
2431.09956	2728.15
2433.88131	2718.05
2436.6613	2741.45
2439.43954	2734.45
2442.21603	2727.05
2444.99077	2718.75
2447.76377	2714.45
2450.53501	2715.95
2453.30451	2716.45
2456.07226	2697.85
2458.83827	2708.45
2461.60254	2701.95
2464.36507	2699.65
2467.12586	2694.05
2469.88492	2689.45
2472.64224	2701.95
2475.39782	2692.65
2478.15167	2699.65
2480.90379	2697.95
2483.65417	2696.55
2486.40283	2689.75
2489.14976	2696.35
2491.89497	2685.85
2494.63845	2693.25
2497.3802	2687.55
2500.12024	2686.45
2502.85855	2684.25
2505.59514	2675.65
2508.33002	2667.15
2511.06318	2669.95
2513.79462	2656.45
2516.52435	2641.55
2519.25237	2639.25
2521.97867	2639.25
2524.70327	2630.35
2527.42616	2634.55
2530.14734	2626.15
2532.86681	2618.25
2535.58458	2614.85
2538.30065	2613.75
2541.01501	2607.65
2543.72768	2615.05
2546.43864	2604.45
2549.14791	2596.25
2551.85548	2588.35
2554.56136	2582.05
2557.26554	2572.95
2559.96803	2569.55
2562.66883	2574.75
2565.36794	2550.95
2568.06536	2556.35
2570.7611	2561.35
2573.45514	2556.75
2576.14751	2541.35
2578.83819	2538.95
2581.52719	2533.55
2584.21451	2532.55
2586.90015	2524.15
2589.58411	2523.25
2592.2664	2529.55
2594.94701	2521.25
2597.62594	2506.25
2600.30321	2506.15
2602.9788	2508.05
2605.65273	2493.25
2608.32498	2499.95
2610.99557	2497.85
2613.66449	2475.85
2616.33175	2482.15
2618.99734	2479.15
2621.66128	2461.65
2624.32355	2463.25
2626.98416	2480.75
2629.64311	2455.75
2632.30041	2474.85
2634.95605	2452.15
2637.61004	2450.65
2640.26238	2446.05
2642.91306	2446.45
2645.56209	2446.75
2648.20948	2445.45
2650.85521	2444.05
2653.4993	2434.95
2656.14175	2441.55
2658.78255	2444.75
2661.42171	2447.05
2664.05923	2433.15
2666.6951	2439.35
2669.32934	2438.55
2671.96194	2440.35
2674.59291	2437.85
2677.22224	2436.35
2679.84993	2442.35
2682.476	2437.85
2685.10043	2453.95
2687.72324	2440.85
2690.34441	2432.45
2692.96396	2437.75
2695.58188	2449.45
2698.19818	2444.15
2700.81285	2458.75
2703.4259	2446.05
2706.03733	2474.55
2708.64714	2473.65
2711.25533	2453.05
2713.86191	2449.55
2716.46687	2450.95
2719.07021	2455.55
2721.67194	2450.65
2724.27206	2440.15
2726.87057	2453.25
2729.46747	2447.55
2732.06276	2442.15
2734.65644	2434.65
2737.24852	2451.05
2739.83899	2430.35
2742.42786	2443.05
2745.01513	2425.15
2747.60079	2425.45
2750.18486	2422.95
2752.76733	2421.65
2755.3482	2404.95
2757.92747	2420.85
2760.50515	2413.05
2763.08123	2409.55
2765.65573	2406.55
2768.22863	2405.45
2770.79994	2386.45
2773.36967	2400.45
2775.9378	2399.45
2778.50435	2387.75
2781.06932	2387.15
2783.6327	2399.65
2786.1945	2391.25
2788.75471	2391.75
2791.31335	2385.85
2793.87041	2382.95
2796.42589	2369.75
2798.97979	2374.55
2801.53212	2367.65
2804.08288	2363.35
2806.63206	2370.05
2809.17967	2354.85
2811.72571	2346.45
2814.27018	2341.35
2816.81308	2342.55
2819.35442	2351.15
2821.89419	2351.05
2824.43239	2354.25
2826.96904	2348.35
2829.50412	2338.75
2832.03763	2339.15
2834.56959	2335.95
2837.1	2343.95
2839.62884	2333.85
2842.15613	2337.85
2844.68186	2348.75
2847.20604	2346.35
2849.72867	2362.15
2852.24974	2359.55
2854.76927	2362.65
2857.28724	2368.25
2859.80367	2362.35
2862.31855	2354.75
2864.83189	2352.75
2867.34368	2356.65
2869.85393	2347.45
2872.36264	2340.95
2874.8698	2359.35
2877.37543	2341.15
2879.87952	2354.65
2882.38207	2351.55
2884.88308	2360.65
2887.38256	2366.55
2889.88051	2366.25
2892.37692	2359.75
2894.8718	2359.35
2897.36515	2369.45
2899.85698	2360.95
2902.34727	2372.35
2904.83604	2371.65
2907.32328	2376.45
2909.809	2371.55
2912.29319	2381.15
2914.77587	2374.45
2917.25702	2381.45
2919.73665	2379.85
2922.21476	2370.35
2924.69136	2381.95
2927.16644	2381.35
2929.64	2386.25
2932.11205	2375.65
2934.58258	2365.95
2937.05161	2373.65
2939.51912	2370.75
2941.98513	2366.05
2944.44962	2373.95
2946.91261	2366.95
2949.37409	2360.25
2951.83407	2360.15
2954.29254	2358.45
2956.74951	2355.65
2959.20498	2344.95
2961.65895	2344.65
2964.11142	2341.75
2966.56239	2335.25
2969.01186	2328.15
2971.45984	2329.95
2973.90632	2322.05
2976.35131	2301.95
2978.7948	2299.15
2981.23681	2298.85
2983.67732	2286.05
2986.11635	2290.65
2988.55388	2290.15
2990.98993	2292.65
2993.4245	2279.75
2995.85758	2284.25
2998.28917	2285.05
3000.71928	2275.35
3003.14791	2275.25
3005.57506	2281.55
3008.00073	2277.85
3010.42493	2281.45
3012.84764	2285.15
3015.26888	2287.15
3017.68865	2281.15
3020.10694	2271.15
3022.52376	2289.95
3024.9391	2293.55
3027.35298	2296.35
3029.76539	2291.45
3032.17632	2282.05
3034.5858	2277.05
3036.9938	2275.05
3039.40034	2288.35
3041.80542	2280.25
3044.20903	2277.15
3046.61118	2279.95
3049.01187	2271.25
3051.4111	2282.65
3053.80888	2280.85
3056.20519	2285.35
3058.60005	2272.05
3060.99345	2277.55
3063.3854	2275.25
3065.7759	2283.55
3068.16494	2272.25
3070.55254	2278.55
3072.93868	2292.35
3075.32338	2279.75
3077.70662	2284.55
3080.08842	2284.95
3082.46878	2286.55
3084.84769	2292.35
3087.22515	2294.55
3089.60118	2298.35
3091.97576	2304.55
3094.3489	2298.45
3096.72061	2308.55
3099.09087	2316.65
3101.4597	2314.95
3103.82709	2324.75
3106.19305	2334.15
3108.55757	2339.45
3110.92066	2334.15
3113.28232	2333.95
3115.64255	2338.95
3118.00134	2338.65
3120.35871	2338.55
3122.71466	2345.35
3125.06917	2345.15
3127.42226	2354.35
3129.77393	2360.05
3132.12417	2375.75
3134.47299	2384.95
3136.82039	2381.95
3139.16636	2394.05
3141.51092	2400.15
3143.85406	2419.55
3146.19579	2422.25
3148.53609	2428.25
3150.87499	2447.25
3153.21246	2442.35
3155.54853	2462.65
3157.88318	2468.45
3160.21642	2469.65
3162.54826	2484.35
3164.87868	2489.45
3167.2077	2488.25
3169.5353	2497.05
3171.86151	2495.35
3174.18631	2512.05
3176.5097	2510.15
3178.83169	2523.75
3181.15228	2556.25
3183.47147	2536.35
3185.78926	2548.65
3188.10565	2533.15
3190.42065	2552.35
3192.73424	2553.95
3195.04645	2569.55
3197.35725	2559.25
3199.66667	2575.55
3201.97469	2589.65
3204.28132	2588.85
3206.58656	2593.85
3208.8904	2604.75
3211.19287	2610.55
3213.49394	2612.95
3215.79363	2622.95
3218.09193	2617.05
3220.38884	2635.35
3222.68438	2644.75
3224.97853	2631.55
3227.2713	2655.05
3229.56269	2636.65
3231.8527	2636.35
3234.14133	2636.35
3236.42858	2632.45
3238.71446	2631.85
3240.99896	2634.55
3243.28209	2638.45
3245.56384	2633.95
3247.84423	2631.85
3250.12324	2630.75
3252.40088	2641.75
3254.67715	2640.85
3256.95205	2637.05
3259.22558	2642.65
3261.49775	2634.15
3263.76855	2637.35
3266.03799	2625.45
3268.30606	2619.95
3270.57277	2614.65
3272.83812	2623.25
3275.10211	2623.05
3277.36474	2615.05
3279.62601	2641.05
3281.88593	2621.25
3284.14448	2626.85
3286.40168	2627.15
3288.65753	2610.15
3290.91202	2613.95
3293.16516	2608.65
3295.41695	2600.45
3297.66738	2594.45
3299.91647	2576.05
3302.16421	2565.15
3304.4106	2554.05
3306.65564	2547.25
3308.89933	2535.35
3311.14169	2516.45
3313.38269	2512.55
3315.62236	2500.25
3317.86068	2469.25
3320.09766	2445.35
3322.3333	2442.55
3324.5676	2441.55
3326.80056	2396.65
3329.03219	2379.15
3331.26248	0.15
3333.49143	0.45
3335.71905	-0.25
