Data from AgNPs_UA_5uM_CRN_500uM_SU_RamanShift__45__11-36-53-147.txt Node

Date: Thu Aug 04 11:36:53 BST 2022
User: TCL
Spectrometer: QEP01345
Trigger mode: 4
Integration Time (sec): 1.000000E0
Scans to average: 10
Electric dark correction enabled: true
Nonlinearity correction enabled: false
Boxcar width: 0
XAxis mode: Raman Shifts
Number of Pixels in Spectrum: 1044
>>>>>Begin Spectral Data<<<<<
46.04893	0.425
50.45542	-0.575
54.85868	0.725
59.25871	0.325
63.6555	-54.875
68.04907	-37.975
72.43941	-69.275
76.82654	-52.675
81.21044	-53.875
85.59113	-48.075
89.96862	-71.075
94.34289	-53.475
98.71396	-73.675
103.08183	-57.575
107.4465	-45.075
111.80798	-52.175
116.16626	-39.375
120.52136	-68.175
124.87327	-42.575
129.222	-56.675
133.56755	-42.575
137.90993	-50.575
142.24913	-37.275
146.58517	-25.075
150.91804	-23.775
155.24774	-6.775
159.57429	22.725
163.89768	39.325
168.21792	103.125
172.53501	150.125
176.84895	272.325
181.15975	460.825
185.46741	686.825
189.77193	975.425
194.07331	1392.825
198.37157	1825.425
202.6667	2281.525
206.9587	2794.125
211.24758	3331.525
215.53334	3918.125
219.81599	4610.125
224.09553	5410.225
228.37195	6239.125
232.64527	7025.125
236.91549	7674.925
241.18261	8011.425
245.44663	8098.425
249.70755	8075.025
253.96539	8044.625
258.22014	8094.425
262.4718	8173.025
266.72039	8149.725
270.96589	7976.325
275.20832	7648.225
279.44768	7328.325
283.68397	7086.225
287.91719	7028.625
292.14735	7188.425
296.37445	7682.225
300.59849	8630.825
304.81948	9914.625
309.03742	11370.925
313.25231	12437.125
317.46415	12265.525
321.67296	10785.625
325.87872	9054.925
330.08145	8069.225
334.28114	7840.025
338.47781	8099.925
342.67145	8657.625
346.86207	9553.025
351.04966	10950.925
355.23424	12306.325
359.4158	12873.125
363.59435	12431.725
367.76989	11582.025
371.94243	10783.225
376.11196	10121.425
380.27849	9647.625
384.44203	9245.425
388.60257	9046.225
392.76012	9101.425
396.91468	9391.025
401.06626	9757.425
405.21485	9799.025
409.36047	9160.925
413.50311	8119.625
417.64277	7144.325
421.77947	6529.825
425.9132	6249.325
430.04396	6115.825
434.17176	6099.025
438.2966	6215.525
442.41849	6409.425
446.53742	6618.825
450.6534	6752.225
454.76644	6748.825
458.87653	6646.925
462.98368	6528.925
467.08789	6372.525
471.18916	6153.525
475.2875	5874.025
479.38291	5639.525
483.4754	5497.825
487.56496	5430.125
491.6516	5368.925
495.73531	5373.625
499.81612	5422.125
503.89401	5604.525
507.96899	5781.825
512.04106	6046.625
516.11023	6315.925
520.1765	6535.725
524.23987	6624.925
528.30034	6589.225
532.35792	6438.225
536.41261	6289.825
540.46441	6039.325
544.51333	5852.425
548.55936	5859.025
552.60252	6045.225
556.64279	6244.625
560.6802	6662.925
564.71473	7569.325
568.7464	8751.325
572.7752	8692.725
576.80114	7160.825
580.82422	5923.925
584.84444	5422.725
588.86181	5238.225
592.87633	5268.925
596.888	5459.925
600.89682	6223.725
604.9028	8780.925
608.90594	15288.725
612.90624	23193.325
616.90371	20977.125
620.89834	11243.925
624.89015	6942.725
628.87913	6455.825
632.86528	7080.825
636.84862	7356.225
640.82913	6622.825
644.80683	5609.225
648.78172	5110.625
652.75379	5283.825
656.72306	6036.725
660.68952	6769.625
664.65319	6344.425
668.61405	5385.925
672.57211	4974.125
676.52738	4981.125
680.47986	4903.825
684.42955	4764.925
688.37646	4692.825
692.32058	4692.625
696.26192	4787.525
700.20048	4900.625
704.13626	4935.225
708.06928	4856.225
711.99952	4827.425
715.927	4882.625
719.85171	5060.525
723.77365	5225.725
727.69284	5090.125
731.60928	4924.525
735.52295	4893.525
739.43388	4947.325
743.34206	4990.925
747.24749	4996.025
751.15017	5026.925
755.05012	5324.825
758.94733	6606.325
762.8418	9478.725
766.73354	13235.425
770.62254	15155.625
774.50882	14382.525
778.39237	12953.325
782.27321	10791.525
786.15132	7992.825
790.02671	6136.725
793.89938	5274.425
797.76935	4963.325
801.6366	4812.125
805.50115	4736.525
809.36299	4715.625
813.22213	4681.325
817.07857	4686.825
820.93231	4713.725
824.78336	4823.625
828.63172	4921.925
832.47738	4976.825
836.32036	4892.525
840.16066	4694.725
843.99827	4552.625
847.8332	4534.925
851.66546	4514.025
855.49504	4506.225
859.32195	4481.525
863.1462	4441.725
866.96777	4434.925
870.78668	4409.725
874.60293	4475.625
878.41652	4541.625
882.22745	4677.825
886.03573	4761.925
889.84136	4728.125
893.64433	4703.225
897.44466	4719.025
901.24235	4725.725
905.0374	4634.325
908.8298	4470.325
912.61957	4362.725
916.40671	4264.025
920.19121	4309.625
923.97308	4512.725
927.75233	4902.325
931.52895	5289.125
935.30295	5087.225
939.07433	4504.925
942.84309	4128.125
946.60924	4002.525
950.37278	3920.625
954.13371	3925.825
957.89203	3903.725
961.64774	3916.825
965.40086	3890.525
969.15137	3867.525
972.89929	3876.625
976.64461	3853.325
980.38733	3866.525
984.12747	3844.425
987.86502	3858.125
991.59999	3879.425
995.33237	3961.725
999.06217	4065.425
1002.78939	4239.125
1006.51404	4526.925
1010.23611	4658.525
1013.95561	4548.025
1017.67255	4346.025
1021.38692	4215.025
1025.09872	4066.025
1028.80796	3960.425
1032.51465	4025.625
1036.21877	4054.225
1039.92035	4129.725
1043.61937	4210.325
1047.31584	4277.425
1051.00976	4273.225
1054.70114	4216.125
1058.38998	4155.625
1062.07627	4141.525
1065.76003	4137.325
1069.44126	4189.525
1073.11995	4303.925
1076.79611	4556.625
1080.46974	5059.425
1084.14085	5739.025
1087.80943	6365.425
1091.47549	6315.925
1095.13903	5743.825
1098.80005	5152.825
1102.45857	4808.125
1106.11456	4775.725
1109.76805	4860.325
1113.41903	5244.025
1117.06751	5879.225
1120.71348	6856.725
1124.35696	8387.825
1127.99793	9439.925
1131.63641	8648.625
1135.2724	7062.425
1138.90589	6006.225
1142.5369	5394.225
1146.16542	5029.625
1149.79145	4759.025
1153.415	4687.625
1157.03607	4748.425
1160.65467	4954.925
1164.27079	5341.525
1167.88443	5899.925
1171.49561	6877.125
1175.10432	8559.825
1178.71056	10935.325
1182.31434	12610.025
1185.91565	12368.625
1189.51451	10854.625
1193.11091	9253.325
1196.70485	8239.525
1200.29634	7825.225
1203.88538	7319.925
1207.47197	6336.325
1211.05612	5437.925
1214.63782	4860.625
1218.21708	4604.625
1221.79391	4504.525
1225.36829	4491.125
1228.94024	4482.325
1232.50976	4460.725
1236.07685	4479.025
1239.6415	4530.725
1243.20374	4620.225
1246.76355	4789.425
1250.32093	4977.725
1253.8759	5249.525
1257.42845	5723.425
1260.97859	6331.325
1264.52631	6963.525
1268.07163	7282.325
1271.61453	7329.125
1275.15503	7133.525
1278.69312	6899.325
1282.22882	7078.925
1285.76211	7948.325
1289.29301	9136.025
1292.82151	9955.625
1296.34761	10278.925
1299.87133	11101.225
1303.39266	13111.325
1306.9116	16898.925
1310.42815	21505.825
1313.94233	23009.125
1317.45412	19391.625
1320.96354	14379.725
1324.47058	10601.025
1327.97525	8257.525
1331.47754	7073.225
1334.97747	6722.725
1338.47502	6861.125
1341.97022	7787.925
1345.46305	9801.525
1348.95352	12673.825
1352.44163	15666.825
1355.92738	19296.625
1359.41078	25615.025
1362.89183	32474.725
1366.37053	31104.625
1369.84688	21532.525
1373.32088	13518.725
1376.79254	10084.325
1380.26186	8554.325
1383.72883	7387.225
1387.19347	6308.025
1390.65578	5498.525
1394.11575	5052.825
1397.57339	4812.325
1401.0287	4675.025
1404.48168	4514.825
1407.93234	4436.825
1411.38068	4519.225
1414.82669	4850.425
1418.27039	5254.425
1421.71177	5353.225
1425.15083	5140.525
1428.58758	5164.625
1432.02203	5601.725
1435.45416	5925.225
1438.88399	5699.925
1442.31151	5375.125
1445.73673	5328.625
1449.15965	5305.925
1452.58027	5193.725
1455.9986	5018.525
1459.41463	4871.925
1462.82837	4900.625
1466.23982	5140.625
1469.64898	5460.025
1473.05586	5604.125
1476.46045	5554.125
1479.86276	5581.625
1483.26279	5853.725
1486.66054	6425.725
1490.05602	7344.425
1493.44922	8876.225
1496.84016	11298.625
1500.22882	15051.225
1503.61521	20302.225
1506.99934	26944.225
1510.38121	33463.725
1513.76081	35726.525
1517.13816	31305.825
1520.51324	23228.625
1523.88607	16069.125
1527.25665	11600.625
1530.62498	9076.525
1533.99105	7632.225
1537.35488	6716.325
1540.71647	6172.825
1544.07581	5945.625
1547.4329	5963.425
1550.78776	6128.225
1554.14038	6431.525
1557.49077	6892.925
1560.83892	7742.725
1564.18484	9061.825
1567.52853	10593.825
1570.86999	11569.525
1574.20922	11735.925
1577.54624	11149.525
1580.88103	9341.925
1584.2136	7186.725
1587.54395	5951.725
1590.87208	5617.425
1594.19801	5964.725
1597.52172	6653.525
1600.84321	6673.725
1604.16251	5928.725
1607.47959	5254.625
1610.79447	4835.025
1614.10715	4491.925
1617.41763	4263.625
1620.7259	4137.025
1624.03199	4173.825
1627.33587	4323.325
1630.63757	4663.025
1633.93707	5299.325
1637.23439	6406.025
1640.52951	8440.725
1643.82246	11938.125
1647.11321	16743.225
1650.40179	20589.625
1653.68819	20307.225
1656.97241	15924.625
1660.25446	10809.325
1663.53433	7309.725
1666.81203	5406.825
1670.08756	4428.025
1673.36092	3927.025
1676.63211	3561.825
1679.90115	3380.025
1683.16801	3226.625
1686.43272	3102.625
1689.69527	3048.125
1692.95567	2972.325
1696.2139	2922.825
1699.46999	2866.625
1702.72392	2851.125
1705.97571	2866.025
1709.22535	2849.125
1712.47284	2892.125
1715.71819	2921.525
1718.96139	2920.625
1722.20246	2912.725
1725.44139	2842.825
1728.67818	2798.225
1731.91284	2703.625
1735.14537	2669.325
1738.37576	2625.125
1741.60403	2608.225
1744.83017	2587.825
1748.05418	2566.825
1751.27607	2550.525
1754.49584	2498.325
1757.71349	2445.125
1760.92903	2430.925
1764.14244	2366.625
1767.35375	2340.325
1770.56294	2305.325
1773.77002	2269.925
1776.97499	2252.525
1780.17785	2204.825
1783.37861	2181.825
1786.57727	2193.625
1789.77382	2128.425
1792.96828	2160.625
1796.16064	2168.125
1799.3509	2160.625
1802.53907	2155.725
1805.72514	2128.125
1808.90913	2109.625
1812.09102	2102.525
1815.27083	2093.125
1818.44856	2093.125
1821.6242	2075.525
1824.79776	2063.025
1827.96924	2047.425
1831.13864	2010.825
1834.30597	2027.825
1837.47122	1996.725
1840.6344	1969.125
1843.7955	1955.525
1846.95454	1922.425
1850.11151	1937.725
1853.26642	1907.925
1856.41926	1917.725
1859.57004	1914.025
1862.71876	1928.125
1865.86542	1933.725
1869.01003	1926.925
1872.15258	1902.725
1875.29308	1929.125
1878.43152	1938.025
1881.56792	1917.025
1884.70227	1904.125
1887.83457	1903.725
1890.96482	1862.325
1894.09304	1869.325
1897.21921	1863.325
1900.34335	1870.225
1903.46544	1856.225
1906.58551	1861.725
1909.70353	1870.125
1912.81953	1854.825
1915.93349	1857.825
1919.04543	1843.125
1922.15534	1810.725
1925.26322	1820.925
1928.36908	1790.225
1931.47292	1778.025
1934.57473	1763.525
1937.67453	1725.025
1940.77232	1690.825
1943.86808	1693.425
1946.96184	1696.025
1950.05358	1661.325
1953.14331	1657.425
1956.23103	1679.925
1959.31675	1649.625
1962.40046	1618.625
1965.48217	1674.225
1968.56188	1684.425
1971.63959	1684.525
1974.7153	1696.625
1977.78901	1692.525
1980.86073	1661.925
1983.93046	1615.125
1986.99819	1532.925
1990.06394	1550.225
1993.1277	1570.425
1996.18947	1544.425
1999.24925	1517.525
2002.30706	1536.225
2005.36288	1527.125
2008.41672	1511.825
2011.46859	1483.225
2014.51848	1476.425
2017.56639	1456.225
2020.61233	1455.425
2023.6563	1469.125
2026.6983	1429.925
2029.73833	1437.925
2032.7764	1443.825
2035.8125	1408.625
2038.84664	1416.425
2041.87881	1411.825
2044.90903	1425.425
2047.93729	1414.425
2050.96359	1397.925
2053.98794	1397.225
2057.01034	1388.825
2060.03078	1365.425
2063.04927	1359.625
2066.06582	1357.625
2069.08042	1333.525
2072.09307	1341.225
2075.10378	1341.625
2078.11255	1332.825
2081.11938	1334.825
2084.12426	1334.025
2087.12722	1338.925
2090.12824	1338.125
2093.12732	1338.125
2096.12447	1342.325
2099.11969	1324.425
2102.11299	1317.325
2105.10435	1337.525
2108.09379	1331.925
2111.08131	1326.525
2114.0669	1347.625
2117.05057	1344.325
2120.03233	1347.825
2123.01216	1375.225
2125.99008	1381.625
2128.96609	1385.325
2131.94018	1406.325
2134.91236	1365.325
2137.88263	1348.825
2140.851	1340.025
2143.81746	1345.625
2146.78201	1325.925
2149.74466	1301.025
2152.7054	1296.425
2155.66425	1285.625
2158.6212	1272.625
2161.57625	1237.425
2164.52941	1230.925
2167.48067	1251.525
2170.43004	1239.725
2173.37752	1278.125
2176.32311	1266.725
2179.26681	1270.925
2182.20863	1280.725
2185.14856	1283.925
2188.08661	1273.925
2191.02278	1276.425
2193.95707	1234.825
2196.88948	1221.925
2199.82001	1230.125
2202.74867	1217.925
2205.67545	1221.625
2208.60037	1234.525
2211.52341	1225.025
2214.44458	1216.325
2217.36388	1215.425
2220.28132	1200.525
2223.1969	1189.625
2226.11061	1193.225
2229.02246	1176.025
2231.93245	1184.625
2234.84058	1171.425
2237.74686	1163.925
2240.65128	1167.225
2243.55385	1177.525
2246.45456	1158.125
2249.35343	1190.925
2252.25044	1187.125
2255.14561	1216.325
2258.03893	1232.525
2260.93041	1251.725
2263.82004	1258.825
2266.70783	1264.325
2269.59378	1250.725
2272.4779	1236.525
2275.36017	1257.125
2278.24061	1231.825
2281.11922	1206.325
2283.996	1217.225
2286.87094	1189.825
2289.74405	1182.425
2292.61534	1186.725
2295.4848	1167.325
2298.35243	1148.825
2301.21824	1138.225
2304.08223	1131.325
2306.94439	1143.225
2309.80474	1142.625
2312.66327	1136.725
2315.51999	1128.925
2318.37489	1127.225
2321.22797	1113.025
2324.07925	1102.725
2326.92871	1108.725
2329.77637	1098.325
2332.62222	1095.925
2335.46626	1090.125
2338.3085	1092.625
2341.14893	1113.725
2343.98756	1124.625
2346.8244	1114.725
2349.65943	1113.325
2352.49267	1124.925
2355.32411	1139.525
2358.15376	1147.125
2360.98161	1173.125
2363.80768	1171.025
2366.63195	1186.925
2369.45444	1209.725
2372.27514	1208.325
2375.09405	1230.625
2377.91118	1186.225
2380.72652	1178.525
2383.54009	1167.925
2386.35187	1163.525
2389.16188	1133.625
2391.97011	1135.525
2394.77657	1116.525
2397.58125	1115.925
2400.38416	1097.125
2403.18529	1079.625
2405.98466	1066.125
2408.78226	1073.325
2411.57809	1058.425
2414.37216	1052.825
2417.16446	1055.225
2419.955	1036.325
2422.74378	1062.225
2425.5308	1048.125
2428.31606	1066.125
2431.09956	1069.625
2433.88131	1059.325
2436.6613	1081.625
2439.43954	1079.825
2442.21603	1083.325
2444.99077	1073.225
2447.76377	1103.325
2450.53501	1105.725
2453.30451	1093.825
2456.07226	1112.625
2458.83827	1102.325
2461.60254	1062.925
2464.36507	1100.425
2467.12586	1084.925
2469.88492	1095.225
2472.64224	1099.725
2475.39782	1086.925
2478.15167	1115.625
2480.90379	1122.525
2483.65417	1153.125
2486.40283	1175.025
2489.14976	1190.425
2491.89497	1184.125
2494.63845	1187.825
2497.3802	1170.925
2500.12024	1160.125
2502.85855	1150.625
2505.59514	1142.425
2508.33002	1113.725
2511.06318	1072.025
2513.79462	1062.325
2516.52435	996.325
2519.25237	969.125
2521.97867	978.525
2524.70327	961.925
2527.42616	961.025
2530.14734	963.325
2532.86681	943.625
2535.58458	952.225
2538.30065	954.125
2541.01501	967.225
2543.72768	954.925
2546.43864	971.025
2549.14791	969.425
2551.85548	965.525
2554.56136	975.025
2557.26554	986.325
2559.96803	992.525
2562.66883	994.625
2565.36794	990.025
2568.06536	964.725
2570.7611	996.525
2573.45514	980.925
2576.14751	973.725
2578.83819	971.325
2581.52719	956.725
2584.21451	955.525
2586.90015	931.025
2589.58411	925.325
2592.2664	944.625
2594.94701	938.725
2597.62594	950.225
2600.30321	887.125
2602.9788	913.125
2605.65273	915.225
2608.32498	925.325
2610.99557	945.925
2613.66449	915.425
2616.33175	939.125
2618.99734	929.225
2621.66128	941.125
2624.32355	927.725
2626.98416	910.825
2629.64311	898.825
2632.30041	894.125
2634.95605	876.225
2637.61004	863.725
2640.26238	836.325
2642.91306	844.325
2645.56209	858.725
2648.20948	853.325
2650.85521	836.325
2653.4993	871.525
2656.14175	864.925
2658.78255	859.225
2661.42171	836.525
2664.05923	872.825
2666.6951	886.125
2669.32934	898.825
2671.96194	917.925
2674.59291	896.025
2677.22224	902.425
2679.84993	894.725
2682.476	892.325
2685.10043	881.525
2687.72324	865.625
2690.34441	871.525
2692.96396	864.825
2695.58188	879.025
2698.19818	867.525
2700.81285	853.425
2703.4259	844.225
2706.03733	818.725
2708.64714	831.325
2711.25533	862.025
2713.86191	871.325
2716.46687	864.425
2719.07021	867.825
2721.67194	866.125
2724.27206	876.325
2726.87057	857.925
2729.46747	844.525
2732.06276	847.025
2734.65644	824.725
2737.24852	827.125
2739.83899	808.325
2742.42786	812.025
2745.01513	823.825
2747.60079	791.725
2750.18486	781.825
2752.76733	783.225
2755.3482	778.325
2757.92747	773.425
2760.50515	754.625
2763.08123	750.725
2765.65573	762.825
2768.22863	739.125
2770.79994	740.425
2773.36967	741.125
2775.9378	740.325
2778.50435	738.125
2781.06932	744.325
2783.6327	734.525
2786.1945	761.125
2788.75471	746.125
2791.31335	755.125
2793.87041	762.925
2796.42589	745.625
2798.97979	748.125
2801.53212	761.625
2804.08288	787.125
2806.63206	783.225
2809.17967	779.225
2811.72571	812.725
2814.27018	809.525
2816.81308	824.125
2819.35442	812.125
2821.89419	837.925
2824.43239	839.725
2826.96904	871.025
2829.50412	849.925
2832.03763	840.325
2834.56959	842.925
2837.1	820.925
2839.62884	815.225
2842.15613	812.725
2844.68186	820.925
2847.20604	804.125
2849.72867	801.925
2852.24974	823.525
2854.76927	800.925
2857.28724	771.725
2859.80367	852.825
2862.31855	873.425
2864.83189	880.525
2867.34368	908.325
2869.85393	925.125
2872.36264	904.925
2874.8698	911.325
2877.37543	908.225
2879.87952	905.425
2882.38207	863.925
2884.88308	869.325
2887.38256	861.025
2889.88051	845.725
2892.37692	839.925
2894.8718	814.225
2897.36515	836.925
2899.85698	837.225
2902.34727	839.025
2904.83604	845.725
2907.32328	871.825
2909.809	901.025
2912.29319	896.525
2914.77587	918.725
2917.25702	924.625
2919.73665	917.125
2922.21476	899.625
2924.69136	884.125
2927.16644	849.325
2929.64	843.525
2932.11205	821.925
2934.58258	827.225
2937.05161	799.025
2939.51912	808.925
2941.98513	818.925
2944.44962	804.725
2946.91261	786.125
2949.37409	801.825
2951.83407	796.525
2954.29254	807.825
2956.74951	807.225
2959.20498	793.725
2961.65895	799.525
2964.11142	791.425
2966.56239	793.725
2969.01186	795.425
2971.45984	779.125
2973.90632	775.025
2976.35131	789.225
2978.7948	786.325
2981.23681	778.925
2983.67732	794.525
2986.11635	795.325
2988.55388	766.125
2990.98993	792.325
2993.4245	782.225
2995.85758	778.825
2998.28917	788.625
3000.71928	775.325
3003.14791	783.825
3005.57506	774.425
3008.00073	769.825
3010.42493	712.925
3012.84764	770.025
3015.26888	770.425
3017.68865	761.925
3020.10694	713.925
3022.52376	739.225
3024.9391	736.525
3027.35298	731.125
3029.76539	694.625
3032.17632	695.925
3034.5858	683.525
3036.9938	679.725
3039.40034	666.925
3041.80542	645.425
3044.20903	637.425
3046.61118	626.125
3049.01187	641.125
3051.4111	627.725
3053.80888	620.525
3056.20519	616.425
3058.60005	605.925
3060.99345	634.125
3063.3854	608.225
3065.7759	599.425
3068.16494	591.025
3070.55254	587.725
3072.93868	605.725
3075.32338	595.825
3077.70662	592.625
3080.08842	579.225
3082.46878	569.125
3084.84769	590.125
3087.22515	562.725
3089.60118	583.225
3091.97576	564.225
3094.3489	576.625
3096.72061	564.425
3099.09087	552.525
3101.4597	565.025
3103.82709	556.625
3106.19305	549.225
3108.55757	560.025
3110.92066	550.625
3113.28232	565.025
3115.64255	567.425
3118.00134	568.625
3120.35871	552.825
3122.71466	546.725
3125.06917	561.725
3127.42226	554.425
3129.77393	542.725
3132.12417	555.125
3134.47299	563.525
3136.82039	544.725
3139.16636	522.525
3141.51092	554.625
3143.85406	552.825
3146.19579	546.125
3148.53609	542.825
3150.87499	555.725
3153.21246	546.925
3155.54853	558.125
3157.88318	562.725
3160.21642	560.625
3162.54826	553.425
3164.87868	561.925
3167.2077	519.425
3169.5353	537.225
3171.86151	542.725
3174.18631	523.025
3176.5097	524.825
3178.83169	515.625
3181.15228	516.125
3183.47147	497.225
3185.78926	488.225
3188.10565	494.125
3190.42065	478.525
3192.73424	491.625
3195.04645	479.325
3197.35725	472.525
3199.66667	483.225
3201.97469	486.025
3204.28132	475.425
3206.58656	487.625
3208.8904	502.225
3211.19287	495.225
3213.49394	492.825
3215.79363	487.525
3218.09193	504.525
3220.38884	497.925
3222.68438	494.825
3224.97853	476.425
3227.2713	505.125
3229.56269	480.725
3231.8527	482.725
3234.14133	475.025
3236.42858	471.125
3238.71446	455.225
3240.99896	474.325
3243.28209	455.925
3245.56384	471.625
3247.84423	459.525
3250.12324	470.325
3252.40088	467.325
3254.67715	453.525
3256.95205	449.925
3259.22558	467.525
3261.49775	458.025
3263.76855	459.625
3266.03799	465.025
3268.30606	465.825
3270.57277	466.725
3272.83812	454.325
3275.10211	462.525
3277.36474	483.325
3279.62601	489.425
3281.88593	466.525
3284.14448	452.325
3286.40168	489.225
3288.65753	483.925
3290.91202	488.125
3293.16516	487.725
3295.41695	511.725
3297.66738	522.925
3299.91647	515.425
3302.16421	532.325
3304.4106	491.425
3306.65564	526.225
3308.89933	510.325
3311.14169	508.925
3313.38269	522.325
3315.62236	501.825
3317.86068	508.625
3320.09766	520.425
3322.3333	501.525
3324.5676	502.525
3326.80056	510.025
3329.03219	520.525
3331.26248	-1.275
3333.49143	-0.775
3335.71905	1.025
