Data from AgNPs_UA_5uM_CRN_500uM_SU_RamanShift__24__11-33-23-143.txt Node

Date: Thu Aug 04 11:33:23 BST 2022
User: TCL
Spectrometer: QEP01345
Trigger mode: 4
Integration Time (sec): 1.000000E0
Scans to average: 10
Electric dark correction enabled: true
Nonlinearity correction enabled: false
Boxcar width: 0
XAxis mode: Raman Shifts
Number of Pixels in Spectrum: 1044
>>>>>Begin Spectral Data<<<<<
46.04893	-0.35
50.45542	-0.15
54.85868	1.45
59.25871	-1.25
63.6555	-50.55
68.04907	-34.15
72.43941	-68.25
76.82654	-51.55
81.21044	-50.85
85.59113	-44.05
89.96862	-68.05
94.34289	-47.95
98.71396	-71.15
103.08183	-49.55
107.4465	-42.85
111.80798	-47.15
116.16626	-36.35
120.52136	-63.15
124.87327	-40.15
129.222	-49.15
133.56755	-32.75
137.90993	-45.65
142.24913	-30.25
146.58517	-19.45
150.91804	-6.95
155.24774	9.05
159.57429	44.15
163.89768	70.35
168.21792	144.55
172.53501	208.95
176.84895	350.85
181.15975	577.65
185.46741	858.05
189.77193	1206.85
194.07331	1712.15
198.37157	2245.85
202.6667	2785.75
206.9587	3386.25
211.24758	4043.95
215.53334	4769.95
219.81599	5600.15
224.09553	6542.95
228.37195	7563.15
232.64527	8499.35
236.91549	9273.45
241.18261	9665.65
245.44663	9774.45
249.70755	9700.75
253.96539	9703.65
258.22014	9812.65
262.4718	9897.75
266.72039	9910.65
270.96589	9650.45
275.20832	9245.55
279.44768	8810.35
283.68397	8490.45
287.91719	8420.05
292.14735	8615.75
296.37445	9275.15
300.59849	10440.15
304.81948	12042.45
309.03742	13858.15
313.25231	15183.35
317.46415	14985.85
321.67296	13132.65
325.87872	10962.05
330.08145	9753.75
334.28114	9456.65
338.47781	9838.35
342.67145	10522.25
346.86207	11645.95
351.04966	13346.25
355.23424	14998.85
359.4158	15634.75
363.59435	15047.25
367.76989	14003.95
371.94243	13033.35
376.11196	12227.85
380.27849	11577.25
384.44203	11105.95
388.60257	10851.05
392.76012	10871.55
396.91468	11232.75
401.06626	11703.65
405.21485	11671.35
409.36047	10920.85
413.50311	9587.55
417.64277	8383.85
421.77947	7602.65
425.9132	7281.45
430.04396	7074.75
434.17176	7065.95
438.2966	7202.05
442.41849	7442.35
446.53742	7712.35
450.6534	7863.85
454.76644	7865.15
458.87653	7708.15
462.98368	7531.95
467.08789	7354.35
471.18916	7102.65
475.2875	6746.85
479.38291	6441.05
483.4754	6245.35
487.56496	6167.05
491.6516	6063.55
495.73531	6044.05
499.81612	6123.25
503.89401	6343.95
507.96899	6574.05
512.04106	6888.15
516.11023	7225.85
520.1765	7467.55
524.23987	7565.85
528.30034	7551.55
532.35792	7388.75
536.41261	7217.45
540.46441	6967.55
544.51333	6786.95
548.55936	6755.85
552.60252	6940.35
556.64279	7209.15
560.6802	7750.75
564.71473	8956.45
568.7464	10551.35
572.7752	10463.45
576.80114	8478.15
580.82422	6842.45
584.84444	6153.95
588.86181	5920.55
592.87633	5929.95
596.888	6157.85
600.89682	7117.35
604.9028	10346.65
608.90594	18621.95
612.90624	28580.55
616.90371	25768.95
620.89834	13433.55
624.89015	8085.35
628.87913	7494.05
632.86528	8254.35
636.84862	8546.35
640.82913	7547.95
644.80683	6255.35
648.78172	5691.35
652.75379	5907.05
656.72306	6860.85
660.68952	7772.45
664.65319	7259.95
668.61405	5996.75
672.57211	5473.15
676.52738	5486.75
680.47986	5421.55
684.42955	5216.45
688.37646	5114.55
692.32058	5126.75
696.26192	5231.65
700.20048	5394.05
704.13626	5444.85
708.06928	5341.65
711.99952	5310.45
715.927	5360.65
719.85171	5644.75
723.77365	5819.15
727.69284	5633.55
731.60928	5453.55
735.52295	5385.55
739.43388	5455.25
743.34206	5514.35
747.24749	5514.15
751.15017	5536.15
755.05012	5973.45
758.94733	7596.15
762.8418	11224.25
766.73354	15922.15
770.62254	18261.55
774.50882	17317.05
778.39237	15370.45
782.27321	12614.95
786.15132	9112.95
790.02671	6832.45
793.89938	5797.05
797.76935	5472.35
801.6366	5267.05
805.50115	5186.95
809.36299	5124.85
813.22213	5107.25
817.07857	5110.35
820.93231	5163.95
824.78336	5280.65
828.63172	5426.45
832.47738	5495.15
836.32036	5355.65
840.16066	5099.95
843.99827	4935.95
847.8332	4883.85
851.66546	4853.75
855.49504	4844.05
859.32195	4840.95
863.1462	4789.95
866.96777	4775.45
870.78668	4749.95
874.60293	4799.55
878.41652	4887.95
882.22745	5095.95
886.03573	5191.85
889.84136	5135.55
893.64433	5124.35
897.44466	5121.05
901.24235	5162.95
905.0374	5022.45
908.8298	4816.35
912.61957	4676.75
916.40671	4571.35
920.19121	4649.65
923.97308	4902.95
927.75233	5404.75
931.52895	5906.55
935.30295	5633.25
939.07433	4884.75
942.84309	4421.25
946.60924	4243.25
950.37278	4165.15
954.13371	4151.75
957.89203	4149.95
961.64774	4142.65
965.40086	4125.45
969.15137	4099.55
972.89929	4116.05
976.64461	4075.05
980.38733	4064.15
984.12747	4064.95
987.86502	4084.85
991.59999	4118.55
995.33237	4207.35
999.06217	4333.15
1002.78939	4567.25
1006.51404	4932.15
1010.23611	5099.75
1013.95561	4922.15
1017.67255	4662.75
1021.38692	4462.35
1025.09872	4308.85
1028.80796	4207.25
1032.51465	4264.05
1036.21877	4312.25
1039.92035	4395.15
1043.61937	4468.15
1047.31584	4568.45
1051.00976	4589.15
1054.70114	4508.25
1058.38998	4419.95
1062.07627	4403.45
1065.76003	4394.25
1069.44126	4465.05
1073.11995	4587.75
1076.79611	4921.25
1080.46974	5529.15
1084.14085	6400.15
1087.80943	7129.65
1091.47549	7066.15
1095.13903	6321.45
1098.80005	5556.55
1102.45857	5161.05
1106.11456	5090.65
1109.76805	5265.45
1113.41903	5761.75
1117.06751	6534.25
1120.71348	7829.35
1124.35696	9734.75
1127.99793	10976.15
1131.63641	9928.45
1135.2724	7990.35
1138.90589	6664.55
1142.5369	5945.35
1146.16542	5459.95
1149.79145	5196.45
1153.415	5111.65
1157.03607	5188.65
1160.65467	5484.05
1164.27079	5968.85
1167.88443	6701.55
1171.49561	7934.45
1175.10432	10027.85
1178.71056	12854.95
1182.31434	14767.95
1185.91565	14389.05
1189.51451	12532.25
1193.11091	10592.55
1196.70485	9368.95
1200.29634	8872.85
1203.88538	8261.35
1207.47197	7089.65
1211.05612	5978.15
1214.63782	5300.05
1218.21708	5012.65
1221.79391	4888.45
1225.36829	4862.95
1228.94024	4867.65
1232.50976	4865.15
1236.07685	4876.45
1239.6415	4940.25
1243.20374	5110.45
1246.76355	5307.25
1250.32093	5577.05
1253.8759	5946.45
1257.42845	6577.95
1260.97859	7389.25
1264.52631	8143.25
1268.07163	8513.45
1271.61453	8476.75
1275.15503	8173.35
1278.69312	7852.75
1282.22882	8093.15
1285.76211	9204.35
1289.29301	10651.15
1292.82151	11637.55
1296.34761	12028.45
1299.87133	13015.75
1303.39266	15500.35
1306.9116	20187.25
1310.42815	25939.65
1313.94233	28146.15
1317.45412	23912.05
1320.96354	17440.25
1324.47058	12549.45
1327.97525	9602.05
1331.47754	8127.75
1334.97747	7640.95
1338.47502	7857.65
1341.97022	8976.85
1345.46305	11500.35
1348.95352	15030.75
1352.44163	18714.05
1355.92738	23423.25
1359.41078	31568.85
1362.89183	39980.25
1366.37053	37711.65
1369.84688	25706.75
1373.32088	16010.75
1376.79254	11854.05
1380.26186	9908.25
1383.72883	8467.45
1387.19347	7138.85
1390.65578	6171.55
1394.11575	5632.55
1397.57339	5370.55
1401.0287	5186.75
1404.48168	4989.95
1407.93234	4901.85
1411.38068	5021.65
1414.82669	5465.75
1418.27039	5943.85
1421.71177	6035.85
1425.15083	5838.55
1428.58758	5939.05
1432.02203	6599.25
1435.45416	7097.65
1438.88399	6745.95
1442.31151	6313.55
1445.73673	6190.75
1449.15965	6160.95
1452.58027	5970.45
1455.9986	5747.65
1459.41463	5537.75
1462.82837	5540.35
1466.23982	5827.05
1469.64898	6195.05
1473.05586	6321.85
1476.46045	6268.55
1479.86276	6333.35
1483.26279	6645.85
1486.66054	7353.35
1490.05602	8493.95
1493.44922	10320.45
1496.84016	13223.85
1500.22882	17714.35
1503.61521	23986.25
1506.99934	32166.85
1510.38121	40483.35
1513.76081	44066.95
1517.13816	39435.15
1520.51324	29487.65
1523.88607	20292.55
1527.25665	14350.35
1530.62498	10960.85
1533.99105	8968.45
1537.35488	7707.45
1540.71647	6992.05
1544.07581	6676.95
1547.4329	6672.35
1550.78776	6893.15
1554.14038	7265.25
1557.49077	7919.45
1560.83892	9090.35
1564.18484	10844.45
1567.52853	12711.85
1570.86999	13755.55
1574.20922	13804.05
1577.54624	12973.95
1580.88103	10806.45
1584.2136	8192.65
1587.54395	6678.05
1590.87208	6316.25
1594.19801	6799.65
1597.52172	7644.65
1600.84321	7679.45
1604.16251	6774.25
1607.47959	5885.95
1610.79447	5370.65
1614.10715	4955.35
1617.41763	4668.85
1620.7259	4548.55
1624.03199	4623.35
1627.33587	4849.75
1630.63757	5308.55
1633.93707	6142.05
1637.23439	7624.45
1640.52951	10381.15
1643.82246	15065.85
1647.11321	21381.25
1650.40179	26385.75
1653.68819	25808.25
1656.97241	19916.15
1660.25446	13211.95
1663.53433	8703.05
1666.81203	6262.15
1670.08756	4999.45
1673.36092	4315.75
1676.63211	3883.45
1679.90115	3634.35
1683.16801	3448.35
1686.43272	3295.45
1689.69527	3227.85
1692.95567	3132.25
1696.2139	3092.05
1699.46999	3008.65
1702.72392	3000.55
1705.97571	2996.45
1709.22535	2990.05
1712.47284	3040.05
1715.71819	3075.35
1718.96139	3059.55
1722.20246	3038.45
1725.44139	2957.05
1728.67818	2889.05
1731.91284	2784.55
1735.14537	2742.15
1738.37576	2676.85
1741.60403	2660.05
1744.83017	2612.65
1748.05418	2616.85
1751.27607	2582.05
1754.49584	2523.25
1757.71349	2453.85
1760.92903	2427.25
1764.14244	2349.75
1767.35375	2322.15
1770.56294	2275.65
1773.77002	2219.55
1776.97499	2192.55
1780.17785	2150.45
1783.37861	2123.35
1786.57727	2126.95
1789.77382	2059.15
1792.96828	2093.95
1796.16064	2096.85
1799.3509	2080.45
1802.53907	2087.95
1805.72514	2050.05
1808.90913	2019.25
1812.09102	2021.55
1815.27083	2021.15
1818.44856	2004.05
1821.6242	1995.55
1824.79776	1980.95
1827.96924	1964.85
1831.13864	1930.65
1834.30597	1926.45
1837.47122	1880.75
1840.6344	1864.85
1843.7955	1835.85
1846.95454	1815.25
1850.11151	1820.55
1853.26642	1784.05
1856.41926	1789.35
1859.57004	1807.65
1862.71876	1802.55
1865.86542	1818.95
1869.01003	1821.95
1872.15258	1798.25
1875.29308	1822.75
1878.43152	1831.05
1881.56792	1829.25
1884.70227	1786.65
1887.83457	1799.65
1890.96482	1752.35
1894.09304	1748.65
1897.21921	1748.35
1900.34335	1750.35
1903.46544	1732.75
1906.58551	1752.35
1909.70353	1736.05
1912.81953	1732.75
1915.93349	1725.05
1919.04543	1722.45
1922.15534	1698.75
1925.26322	1687.85
1928.36908	1647.95
1931.47292	1627.45
1934.57473	1619.65
1937.67453	1574.95
1940.77232	1531.45
1943.86808	1528.45
1946.96184	1526.15
1950.05358	1498.85
1953.14331	1497.35
1956.23103	1509.95
1959.31675	1501.85
1962.40046	1478.75
1965.48217	1527.05
1968.56188	1546.85
1971.63959	1555.85
1974.7153	1576.55
1977.78901	1549.45
1980.86073	1515.95
1983.93046	1457.85
1986.99819	1368.45
1990.06394	1384.45
1993.1277	1406.25
1996.18947	1391.45
1999.24925	1349.25
2002.30706	1350.75
2005.36288	1354.45
2008.41672	1329.55
2011.46859	1304.05
2014.51848	1292.95
2017.56639	1285.85
2020.61233	1281.55
2023.6563	1291.25
2026.6983	1247.95
2029.73833	1256.85
2032.7764	1272.05
2035.8125	1220.25
2038.84664	1239.75
2041.87881	1238.65
2044.90903	1242.75
2047.93729	1248.75
2050.96359	1209.35
2053.98794	1216.55
2057.01034	1206.35
2060.03078	1173.15
2063.04927	1170.35
2066.06582	1159.25
2069.08042	1144.75
2072.09307	1151.05
2075.10378	1144.95
2078.11255	1139.65
2081.11938	1137.95
2084.12426	1140.85
2087.12722	1139.75
2090.12824	1130.55
2093.12732	1135.65
2096.12447	1139.65
2099.11969	1132.85
2102.11299	1117.05
2105.10435	1151.05
2108.09379	1136.35
2111.08131	1130.75
2114.0669	1149.55
2117.05057	1149.75
2120.03233	1154.75
2123.01216	1192.85
2125.99008	1213.95
2128.96609	1215.05
2131.94018	1221.85
2134.91236	1200.85
2137.88263	1170.05
2140.851	1151.55
2143.81746	1153.05
2146.78201	1119.15
2149.74466	1092.85
2152.7054	1094.05
2155.66425	1067.25
2158.6212	1057.75
2161.57625	1032.35
2164.52941	1010.95
2167.48067	1031.75
2170.43004	1027.85
2173.37752	1060.35
2176.32311	1057.85
2179.26681	1065.05
2182.20863	1077.65
2185.14856	1064.65
2188.08661	1059.05
2191.02278	1055.05
2193.95707	1028.35
2196.88948	1012.55
2199.82001	1010.35
2202.74867	1001.25
2205.67545	1004.55
2208.60037	1015.85
2211.52341	1005.05
2214.44458	1000.25
2217.36388	997.05
2220.28132	982.45
2223.1969	968.25
2226.11061	967.35
2229.02246	955.45
2231.93245	959.15
2234.84058	944.45
2237.74686	943.45
2240.65128	938.15
2243.55385	955.05
2246.45456	944.55
2249.35343	971.45
2252.25044	980.05
2255.14561	1016.95
2258.03893	1040.95
2260.93041	1062.05
2263.82004	1081.55
2266.70783	1083.55
2269.59378	1066.25
2272.4779	1051.25
2275.36017	1068.05
2278.24061	1050.75
2281.11922	1023.45
2283.996	1030.05
2286.87094	997.35
2289.74405	996.85
2292.61534	982.15
2295.4848	958.45
2298.35243	944.45
2301.21824	931.95
2304.08223	922.65
2306.94439	926.45
2309.80474	928.45
2312.66327	929.35
2315.51999	917.05
2318.37489	914.65
2321.22797	896.75
2324.07925	901.55
2326.92871	897.75
2329.77637	885.25
2332.62222	899.05
2335.46626	886.35
2338.3085	886.85
2341.14893	909.45
2343.98756	923.25
2346.8244	914.35
2349.65943	917.25
2352.49267	929.15
2355.32411	953.05
2358.15376	957.25
2360.98161	985.35
2363.80768	986.55
2366.63195	1014.25
2369.45444	1029.75
2372.27514	1034.85
2375.09405	1052.95
2377.91118	1005.05
2380.72652	1001.45
2383.54009	990.95
2386.35187	979.55
2389.16188	947.85
2391.97011	934.75
2394.77657	917.75
2397.58125	921.05
2400.38416	894.55
2403.18529	882.45
2405.98466	866.05
2408.78226	871.05
2411.57809	867.05
2414.37216	857.35
2417.16446	860.05
2419.955	845.55
2422.74378	873.15
2425.5308	858.05
2428.31606	873.45
2431.09956	891.15
2433.88131	870.65
2436.6613	903.25
2439.43954	895.25
2442.21603	903.65
2444.99077	906.75
2447.76377	931.45
2450.53501	932.55
2453.30451	928.55
2456.07226	945.75
2458.83827	933.35
2461.60254	894.75
2464.36507	932.45
2467.12586	907.85
2469.88492	928.35
2472.64224	926.95
2475.39782	916.95
2478.15167	943.35
2480.90379	961.75
2483.65417	1005.25
2486.40283	1019.15
2489.14976	1043.05
2491.89497	1029.05
2494.63845	1036.55
2497.3802	1020.95
2500.12024	1006.25
2502.85855	991.65
2505.59514	977.05
2508.33002	948.65
2511.06318	905.45
2513.79462	888.75
2516.52435	821.65
2519.25237	792.65
2521.97867	785.35
2524.70327	777.25
2527.42616	769.25
2530.14734	777.95
2532.86681	759.55
2535.58458	763.35
2538.30065	758.75
2541.01501	780.05
2543.72768	775.95
2546.43864	786.25
2549.14791	795.95
2551.85548	792.45
2554.56136	792.95
2557.26554	808.65
2559.96803	821.95
2562.66883	824.05
2565.36794	816.65
2568.06536	797.25
2570.7611	830.85
2573.45514	812.45
2576.14751	802.75
2578.83819	795.45
2581.52719	786.15
2584.21451	785.85
2586.90015	759.85
2589.58411	747.25
2592.2664	757.15
2594.94701	761.75
2597.62594	773.75
2600.30321	715.55
2602.9788	740.55
2605.65273	735.95
2608.32498	754.95
2610.99557	783.75
2613.66449	753.05
2616.33175	766.55
2618.99734	773.95
2621.66128	775.65
2624.32355	765.75
2626.98416	750.05
2629.64311	737.75
2632.30041	728.95
2634.95605	705.75
2637.61004	689.85
2640.26238	674.55
2642.91306	671.55
2645.56209	695.85
2648.20948	687.05
2650.85521	670.55
2653.4993	705.45
2656.14175	698.05
2658.78255	696.35
2661.42171	666.65
2664.05923	719.05
2666.6951	725.95
2669.32934	738.15
2671.96194	756.55
2674.59291	747.05
2677.22224	748.85
2679.84993	753.35
2682.476	726.95
2685.10043	729.25
2687.72324	716.85
2690.34441	706.05
2692.96396	708.35
2695.58188	722.45
2698.19818	711.15
2700.81285	691.25
2703.4259	685.05
2706.03733	662.65
2708.64714	671.75
2711.25533	706.45
2713.86191	716.15
2716.46687	708.95
2719.07021	711.15
2721.67194	714.35
2724.27206	723.05
2726.87057	696.15
2729.46747	679.15
2732.06276	683.55
2734.65644	667.75
2737.24852	663.05
2739.83899	640.55
2742.42786	649.65
2745.01513	649.05
2747.60079	630.35
2750.18486	608.85
2752.76733	611.45
2755.3482	600.85
2757.92747	599.65
2760.50515	579.95
2763.08123	579.65
2765.65573	580.35
2768.22863	573.95
2770.79994	564.85
2773.36967	565.45
2775.9378	566.95
2778.50435	566.85
2781.06932	569.05
2783.6327	565.25
2786.1945	591.55
2788.75471	576.05
2791.31335	587.85
2793.87041	589.15
2796.42589	581.55
2798.97979	590.25
2801.53212	613.75
2804.08288	634.55
2806.63206	634.15
2809.17967	631.45
2811.72571	668.75
2814.27018	684.05
2816.81308	693.55
2819.35442	681.25
2821.89419	721.55
2824.43239	715.95
2826.96904	756.95
2829.50412	726.95
2832.03763	732.25
2834.56959	716.55
2837.1	701.15
2839.62884	692.25
2842.15613	687.65
2844.68186	696.65
2847.20604	672.85
2849.72867	687.35
2852.24974	706.85
2854.76927	685.85
2857.28724	666.65
2859.80367	745.85
2862.31855	770.45
2864.83189	775.95
2867.34368	809.15
2869.85393	830.35
2872.36264	813.65
2874.8698	824.35
2877.37543	830.75
2879.87952	813.15
2882.38207	775.05
2884.88308	767.55
2887.38256	761.25
2889.88051	740.95
2892.37692	734.75
2894.8718	708.75
2897.36515	727.55
2899.85698	720.95
2902.34727	739.25
2904.83604	751.05
2907.32328	773.35
2909.809	799.05
2912.29319	810.85
2914.77587	824.85
2917.25702	828.55
2919.73665	815.45
2922.21476	797.15
2924.69136	776.35
2927.16644	743.75
2929.64	725.45
2932.11205	694.55
2934.58258	705.65
2937.05161	692.25
2939.51912	694.55
2941.98513	705.05
2944.44962	691.45
2946.91261	665.85
2949.37409	688.05
2951.83407	685.85
2954.29254	685.35
2956.74951	697.75
2959.20498	685.35
2961.65895	691.25
2964.11142	683.65
2966.56239	674.65
2969.01186	678.55
2971.45984	669.65
2973.90632	660.75
2976.35131	678.35
2978.7948	672.25
2981.23681	665.45
2983.67732	674.05
2986.11635	686.55
2988.55388	653.05
2990.98993	675.85
2993.4245	668.45
2995.85758	669.15
2998.28917	677.05
3000.71928	669.75
3003.14791	676.35
3005.57506	666.15
3008.00073	660.65
3010.42493	607.35
3012.84764	667.15
3015.26888	666.55
3017.68865	660.25
3020.10694	619.75
3022.52376	639.65
3024.9391	633.35
3027.35298	615.75
3029.76539	593.45
3032.17632	592.15
3034.5858	565.55
3036.9938	567.75
3039.40034	545.95
3041.80542	523.45
3044.20903	512.95
3046.61118	496.25
3049.01187	509.25
3051.4111	493.65
3053.80888	492.05
3056.20519	488.35
3058.60005	473.65
3060.99345	502.65
3063.3854	479.15
3065.7759	470.05
3068.16494	463.05
3070.55254	457.35
3072.93868	470.55
3075.32338	460.05
3077.70662	459.75
3080.08842	452.15
3082.46878	432.15
3084.84769	454.55
3087.22515	436.25
3089.60118	447.25
3091.97576	428.35
3094.3489	438.35
3096.72061	434.75
3099.09087	412.95
3101.4597	425.65
3103.82709	424.15
3106.19305	410.55
3108.55757	417.95
3110.92066	413.65
3113.28232	423.95
3115.64255	423.25
3118.00134	427.15
3120.35871	414.25
3122.71466	406.45
3125.06917	423.85
3127.42226	414.05
3129.77393	400.85
3132.12417	420.35
3134.47299	425.15
3136.82039	410.95
3139.16636	393.05
3141.51092	414.55
3143.85406	425.45
3146.19579	409.95
3148.53609	407.55
3150.87499	419.75
3153.21246	416.35
3155.54853	425.15
3157.88318	432.55
3160.21642	440.85
3162.54826	429.55
3164.87868	429.55
3167.2077	392.95
3169.5353	409.15
3171.86151	415.65
3174.18631	392.65
3176.5097	383.65
3178.83169	378.45
3181.15228	375.55
3183.47147	357.35
3185.78926	339.25
3188.10565	349.95
3190.42065	335.95
3192.73424	345.15
3195.04645	341.15
3197.35725	332.85
3199.66667	349.75
3201.97469	341.95
3204.28132	336.25
3206.58656	352.55
3208.8904	361.85
3211.19287	358.15
3213.49394	355.45
3215.79363	353.05
3218.09193	368.35
3220.38884	363.35
3222.68438	359.85
3224.97853	349.25
3227.2713	364.95
3229.56269	350.95
3231.8527	347.65
3234.14133	338.25
3236.42858	335.55
3238.71446	315.25
3240.99896	340.85
3243.28209	319.45
3245.56384	338.65
3247.84423	321.75
3250.12324	334.75
3252.40088	324.35
3254.67715	324.95
3256.95205	315.55
3259.22558	329.45
3261.49775	328.65
3263.76855	321.45
3266.03799	333.75
3268.30606	335.95
3270.57277	342.55
3272.83812	329.95
3275.10211	345.45
3277.36474	359.95
3279.62601	362.15
3281.88593	351.15
3284.14448	347.25
3286.40168	378.15
3288.65753	376.55
3290.91202	393.95
3293.16516	393.55
3295.41695	424.95
3297.66738	438.75
3299.91647	436.45
3302.16421	455.05
3304.4106	422.85
3306.65564	457.85
3308.89933	443.25
3311.14169	452.65
3313.38269	455.15
3315.62236	454.35
3317.86068	451.85
3320.09766	468.95
3322.3333	456.05
3324.5676	465.95
3326.80056	465.25
3329.03219	482.75
3331.26248	-0.85
3333.49143	-0.05
3335.71905	0.35
