Data from AgNPs_UA_10uM_CRN_500uM_SU_RamanShift__22__13-09-00-258.txt Node

Date: Thu Aug 04 13:09:00 BST 2022
User: TCL
Spectrometer: QEP01345
Trigger mode: 4
Integration Time (sec): 1.000000E0
Scans to average: 10
Electric dark correction enabled: true
Nonlinearity correction enabled: false
Boxcar width: 0
XAxis mode: Raman Shifts
Number of Pixels in Spectrum: 1044
>>>>>Begin Spectral Data<<<<<
46.04893	0.6125
50.45542	0.4125
54.85868	-0.0875
59.25871	0.1125
63.6555	15.5125
68.04907	16.9125
72.43941	18.2125
76.82654	17.0125
81.21044	19.8125
85.59113	20.7125
89.96862	21.6125
94.34289	20.5125
98.71396	23.7125
103.08183	23.8125
107.4465	24.1125
111.80798	24.9125
116.16626	25.5125
120.52136	27.0125
124.87327	28.2125
129.222	30.4125
133.56755	31.7125
137.90993	35.1125
142.24913	39.0125
146.58517	44.2125
150.91804	53.1125
155.24774	62.3125
159.57429	77.3125
163.89768	102.0125
168.21792	138.6125
172.53501	188.5125
176.84895	266.1125
181.15975	382.0125
185.46741	535.4125
189.77193	746.7125
194.07331	1008.0125
198.37157	1303.9125
202.6667	1608.0125
206.9587	1932.0125
211.24758	2245.4125
215.53334	2565.8125
219.81599	2917.1125
224.09553	3306.4125
228.37195	3734.4125
232.64527	4177.7125
236.91549	4623.1125
241.18261	5032.1125
245.44663	5330.4125
249.70755	5571.4125
253.96539	5780.6125
258.22014	5964.7125
262.4718	6118.2125
266.72039	6179.0125
270.96589	6197.7125
275.20832	6130.6125
279.44768	6040.8125
283.68397	5948.6125
287.91719	5902.7125
292.14735	5906.0125
296.37445	6022.7125
300.59849	6199.3125
304.81948	6445.0125
309.03742	6707.6125
313.25231	6833.1125
317.46415	6804.0125
321.67296	6523.6125
325.87872	6252.5125
330.08145	6107.4125
334.28114	6084.1125
338.47781	6140.8125
342.67145	6255.7125
346.86207	6436.5125
351.04966	6725.6125
355.23424	7044.1125
359.4158	7213.6125
363.59435	7275.0125
367.76989	7255.0125
371.94243	7205.8125
376.11196	7161.2125
380.27849	7166.8125
384.44203	7169.0125
388.60257	7197.5125
392.76012	7242.5125
396.91468	7339.3125
401.06626	7466.7125
405.21485	7510.0125
409.36047	7423.4125
413.50311	7177.2125
417.64277	6978.4125
421.77947	6846.0125
425.9132	6759.6125
430.04396	6739.5125
434.17176	6761.6125
438.2966	6822.1125
442.41849	6907.1125
446.53742	7067.0125
450.6534	7185.5125
454.76644	7295.9125
458.87653	7339.8125
462.98368	7356.8125
467.08789	7309.6125
471.18916	7199.0125
475.2875	7077.0125
479.38291	6939.4125
483.4754	6842.8125
487.56496	6791.4125
491.6516	6780.4125
495.73531	6793.8125
499.81612	6823.6125
503.89401	6902.6125
507.96899	6945.9125
512.04106	6989.3125
516.11023	7036.5125
520.1765	7068.6125
524.23987	7101.8125
528.30034	7082.4125
532.35792	7036.5125
536.41261	7001.7125
540.46441	6895.6125
544.51333	6892.2125
548.55936	6919.2125
552.60252	7008.8125
556.64279	7126.9125
560.6802	7237.9125
564.71473	7318.3125
568.7464	7415.3125
572.7752	7380.7125
576.80114	7147.4125
580.82422	6995.9125
584.84444	6927.5125
588.86181	6904.7125
592.87633	6919.4125
596.888	7047.4125
600.89682	7390.9125
604.9028	8281.8125
608.90594	10082.2125
612.90624	11846.9125
616.90371	10938.1125
620.89834	8508.8125
624.89015	7470.4125
628.87913	7374.0125
632.86528	7550.7125
636.84862	7652.3125
640.82913	7478.0125
644.80683	7191.9125
648.78172	6994.2125
652.75379	7037.2125
656.72306	7247.1125
660.68952	7455.0125
664.65319	7409.2125
668.61405	7307.3125
672.57211	7352.0125
676.52738	7344.1125
680.47986	7180.7125
684.42955	7015.6125
688.37646	6983.5125
692.32058	7022.8125
696.26192	7174.1125
700.20048	7299.3125
704.13626	7336.6125
708.06928	7258.8125
711.99952	7160.2125
715.927	7125.2125
719.85171	7185.4125
723.77365	7217.3125
727.69284	7171.3125
731.60928	7113.9125
735.52295	7113.0125
739.43388	7155.0125
743.34206	7174.2125
747.24749	7161.3125
751.15017	7143.9125
755.05012	7244.3125
758.94733	7508.1125
762.8418	8197.3125
766.73354	9205.7125
770.62254	9941.9125
774.50882	10082.0125
778.39237	9787.7125
782.27321	9150.0125
786.15132	8365.6125
790.02671	7742.8125
793.89938	7418.3125
797.76935	7272.4125
801.6366	7190.7125
805.50115	7145.9125
809.36299	7115.0125
813.22213	7104.5125
817.07857	7105.3125
820.93231	7093.1125
824.78336	7105.4125
828.63172	7152.9125
832.47738	7142.2125
836.32036	7139.3125
840.16066	7138.6125
843.99827	7105.3125
847.8332	7081.6125
851.66546	7127.9125
855.49504	7133.4125
859.32195	7136.2125
863.1462	7138.3125
866.96777	7129.9125
870.78668	7135.4125
874.60293	7137.0125
878.41652	7197.8125
882.22745	7272.1125
886.03573	7287.4125
889.84136	7289.5125
893.64433	7272.6125
897.44466	7246.8125
901.24235	7247.1125
905.0374	7227.1125
908.8298	7189.6125
912.61957	7180.5125
916.40671	7187.3125
920.19121	7187.6125
923.97308	7211.9125
927.75233	7285.2125
931.52895	7343.2125
935.30295	7306.3125
939.07433	7190.3125
942.84309	7108.2125
946.60924	7095.0125
950.37278	7080.0125
954.13371	7046.3125
957.89203	7045.0125
961.64774	7047.7125
965.40086	7045.3125
969.15137	7023.0125
972.89929	7041.1125
976.64461	7039.1125
980.38733	7047.0125
984.12747	7069.4125
987.86502	7068.9125
991.59999	7116.7125
995.33237	7142.1125
999.06217	7197.8125
1002.78939	7279.2125
1006.51404	7422.5125
1010.23611	7557.4125
1013.95561	7617.5125
1017.67255	7635.6125
1021.38692	7605.9125
1025.09872	7559.4125
1028.80796	7461.8125
1032.51465	7432.2125
1036.21877	7459.4125
1039.92035	7497.3125
1043.61937	7526.4125
1047.31584	7543.8125
1051.00976	7582.2125
1054.70114	7601.1125
1058.38998	7636.3125
1062.07627	7672.0125
1065.76003	7722.5125
1069.44126	7801.1125
1073.11995	7954.2125
1076.79611	8135.3125
1080.46974	8234.2125
1084.14085	8321.9125
1087.80943	8401.8125
1091.47549	8475.4125
1095.13903	8466.3125
1098.80005	8484.1125
1102.45857	8569.8125
1106.11456	8568.2125
1109.76805	8392.8125
1113.41903	8349.0125
1117.06751	8458.3125
1120.71348	8608.0125
1124.35696	8783.4125
1127.99793	8916.2125
1131.63641	8768.6125
1135.2724	8463.5125
1138.90589	8256.1125
1142.5369	8136.0125
1146.16542	8050.0125
1149.79145	7982.9125
1153.415	7901.2125
1157.03607	7884.1125
1160.65467	7955.2125
1164.27079	8127.8125
1167.88443	8367.8125
1171.49561	8739.3125
1175.10432	9289.1125
1178.71056	10043.3125
1182.31434	10660.0125
1185.91565	10919.5125
1189.51451	10845.5125
1193.11091	10743.8125
1196.70485	10605.2125
1200.29634	10427.6125
1203.88538	10148.9125
1207.47197	9770.3125
1211.05612	9351.7125
1214.63782	8990.2125
1218.21708	8709.3125
1221.79391	8517.4125
1225.36829	8451.0125
1228.94024	8422.6125
1232.50976	8449.6125
1236.07685	8496.5125
1239.6415	8529.9125
1243.20374	8570.7125
1246.76355	8632.6125
1250.32093	8697.4125
1253.8759	8803.4125
1257.42845	8974.6125
1260.97859	9259.0125
1264.52631	9479.1125
1268.07163	9657.3125
1271.61453	9758.8125
1275.15503	9719.2125
1278.69312	9698.8125
1282.22882	9727.6125
1285.76211	9802.3125
1289.29301	9965.9125
1292.82151	10185.7125
1296.34761	10361.5125
1299.87133	10677.7125
1303.39266	11236.5125
1306.9116	12077.4125
1310.42815	13012.0125
1313.94233	13318.7125
1317.45412	12802.7125
1320.96354	12018.0125
1324.47058	11348.6125
1327.97525	10807.9125
1331.47754	10469.4125
1334.97747	10380.0125
1338.47502	10484.2125
1341.97022	10848.0125
1345.46305	11538.9125
1348.95352	12578.0125
1352.44163	13724.8125
1355.92738	14827.6125
1359.41078	16005.0125
1362.89183	16820.9125
1366.37053	16002.3125
1369.84688	13760.8125
1373.32088	11701.3125
1376.79254	10548.9125
1380.26186	10015.7125
1383.72883	9658.0125
1387.19347	9312.7125
1390.65578	9023.9125
1394.11575	8761.8125
1397.57339	8563.5125
1401.0287	8483.8125
1404.48168	8471.3125
1407.93234	8533.3125
1411.38068	8634.8125
1414.82669	8748.3125
1418.27039	8803.2125
1421.71177	8786.5125
1425.15083	8689.6125
1428.58758	8585.0125
1432.02203	8594.4125
1435.45416	8579.7125
1438.88399	8556.9125
1442.31151	8550.1125
1445.73673	8613.0125
1449.15965	8631.9125
1452.58027	8608.4125
1455.9986	8614.9125
1459.41463	8602.9125
1462.82837	8690.4125
1466.23982	8865.1125
1469.64898	9050.9125
1473.05586	9190.9125
1476.46045	9324.7125
1479.86276	9424.4125
1483.26279	9548.5125
1486.66054	9722.3125
1490.05602	10039.3125
1493.44922	10477.0125
1496.84016	11250.9125
1500.22882	12296.0125
1503.61521	13556.4125
1506.99934	14791.7125
1510.38121	15529.3125
1513.76081	15331.5125
1517.13816	14114.0125
1520.51324	12567.4125
1523.88607	11326.3125
1527.25665	10612.8125
1530.62498	10214.1125
1533.99105	10067.1125
1537.35488	9956.5125
1540.71647	9857.0125
1544.07581	9770.9125
1547.4329	9652.9125
1550.78776	9525.6125
1554.14038	9407.4125
1557.49077	9381.8125
1560.83892	9476.8125
1564.18484	9727.1125
1567.52853	9979.4125
1570.86999	10186.1125
1574.20922	10241.3125
1577.54624	10133.3125
1580.88103	9719.4125
1584.2136	9237.1125
1587.54395	8922.3125
1590.87208	8861.6125
1594.19801	9074.4125
1597.52172	9416.2125
1600.84321	9503.2125
1604.16251	9416.3125
1607.47959	9297.1125
1610.79447	9079.3125
1614.10715	8778.4125
1617.41763	8419.9125
1620.7259	8176.9125
1624.03199	7992.3125
1627.33587	7941.8125
1630.63757	7992.1125
1633.93707	8179.9125
1637.23439	8598.9125
1640.52951	9263.3125
1643.82246	10215.8125
1647.11321	11224.4125
1650.40179	11741.0125
1653.68819	11357.4125
1656.97241	10174.5125
1660.25446	8971.7125
1663.53433	8118.4125
1666.81203	7589.0125
1670.08756	7291.2125
1673.36092	7114.2125
1676.63211	6977.7125
1679.90115	6907.3125
1683.16801	6824.7125
1686.43272	6764.9125
1689.69527	6726.1125
1692.95567	6688.1125
1696.2139	6658.7125
1699.46999	6631.3125
1702.72392	6637.1125
1705.97571	6615.0125
1709.22535	6602.8125
1712.47284	6628.8125
1715.71819	6606.5125
1718.96139	6604.0125
1722.20246	6601.7125
1725.44139	6573.8125
1728.67818	6541.0125
1731.91284	6501.4125
1735.14537	6463.1125
1738.37576	6443.9125
1741.60403	6408.7125
1744.83017	6389.4125
1748.05418	6391.4125
1751.27607	6374.0125
1754.49584	6360.5125
1757.71349	6365.9125
1760.92903	6355.1125
1764.14244	6314.0125
1767.35375	6305.5125
1770.56294	6281.9125
1773.77002	6285.8125
1776.97499	6252.2125
1780.17785	6220.3125
1783.37861	6206.4125
1786.57727	6203.2125
1789.77382	6217.9125
1792.96828	6199.5125
1796.16064	6184.7125
1799.3509	6171.0125
1802.53907	6151.0125
1805.72514	6155.9125
1808.90913	6127.3125
1812.09102	6121.2125
1815.27083	6097.2125
1818.44856	6065.6125
1821.6242	6043.8125
1824.79776	6052.2125
1827.96924	6048.5125
1831.13864	6021.0125
1834.30597	6018.0125
1837.47122	6006.6125
1840.6344	5980.1125
1843.7955	5987.3125
1846.95454	5975.3125
1850.11151	5991.9125
1853.26642	5960.2125
1856.41926	5957.4125
1859.57004	5985.2125
1862.71876	5983.0125
1865.86542	5967.8125
1869.01003	5941.0125
1872.15258	5930.8125
1875.29308	5928.2125
1878.43152	5924.5125
1881.56792	5934.1125
1884.70227	5905.2125
1887.83457	5860.0125
1890.96482	5859.9125
1894.09304	5855.6125
1897.21921	5849.2125
1900.34335	5855.9125
1903.46544	5844.4125
1906.58551	5835.4125
1909.70353	5802.6125
1912.81953	5808.6125
1915.93349	5814.3125
1919.04543	5785.1125
1922.15534	5783.5125
1925.26322	5779.0125
1928.36908	5741.3125
1931.47292	5741.3125
1934.57473	5715.7125
1937.67453	5715.2125
1940.77232	5698.8125
1943.86808	5680.1125
1946.96184	5635.5125
1950.05358	5635.9125
1953.14331	5628.3125
1956.23103	5623.7125
1959.31675	5577.5125
1962.40046	5578.0125
1965.48217	5558.3125
1968.56188	5543.1125
1971.63959	5534.8125
1974.7153	5510.3125
1977.78901	5516.4125
1980.86073	5493.3125
1983.93046	5465.7125
1986.99819	5447.6125
1990.06394	5425.9125
1993.1277	5402.4125
1996.18947	5372.5125
1999.24925	5351.8125
2002.30706	5340.0125
2005.36288	5319.6125
2008.41672	5304.3125
2011.46859	5266.0125
2014.51848	5264.6125
2017.56639	5242.7125
2020.61233	5237.4125
2023.6563	5217.9125
2026.6983	5216.5125
2029.73833	5190.5125
2032.7764	5167.0125
2035.8125	5165.8125
2038.84664	5147.8125
2041.87881	5126.7125
2044.90903	5126.8125
2047.93729	5112.5125
2050.96359	5094.4125
2053.98794	5091.0125
2057.01034	5092.1125
2060.03078	5077.4125
2063.04927	5087.8125
2066.06582	5070.7125
2069.08042	5064.7125
2072.09307	5045.7125
2075.10378	5052.3125
2078.11255	5044.0125
2081.11938	5024.6125
2084.12426	5028.3125
2087.12722	5007.4125
2090.12824	5028.2125
2093.12732	5020.5125
2096.12447	5017.5125
2099.11969	5020.3125
2102.11299	5027.9125
2105.10435	5029.0125
2108.09379	5014.8125
2111.08131	5003.6125
2114.0669	5021.0125
2117.05057	5031.3125
2120.03233	5036.5125
2123.01216	5018.9125
2125.99008	5026.8125
2128.96609	5035.2125
2131.94018	5036.0125
2134.91236	5015.8125
2137.88263	5022.1125
2140.851	5029.8125
2143.81746	5031.3125
2146.78201	5019.5125
2149.74466	5018.1125
2152.7054	5017.0125
2155.66425	5004.1125
2158.6212	5014.6125
2161.57625	4995.0125
2164.52941	4995.8125
2167.48067	4997.9125
2170.43004	4984.9125
2173.37752	4976.3125
2176.32311	4997.8125
2179.26681	4985.6125
2182.20863	4985.9125
2185.14856	4992.5125
2188.08661	4976.5125
2191.02278	4982.8125
2193.95707	4981.8125
2196.88948	4972.6125
2199.82001	4949.5125
2202.74867	4948.7125
2205.67545	4959.5125
2208.60037	4964.0125
2211.52341	4920.6125
2214.44458	4912.3125
2217.36388	4894.2125
2220.28132	4896.2125
2223.1969	4874.8125
2226.11061	4863.4125
2229.02246	4844.8125
2231.93245	4838.1125
2234.84058	4818.5125
2237.74686	4816.6125
2240.65128	4808.8125
2243.55385	4792.5125
2246.45456	4793.7125
2249.35343	4772.3125
2252.25044	4783.3125
2255.14561	4781.3125
2258.03893	4789.4125
2260.93041	4772.3125
2263.82004	4758.9125
2266.70783	4755.5125
2269.59378	4715.5125
2272.4779	4718.8125
2275.36017	4696.7125
2278.24061	4694.2125
2281.11922	4680.0125
2283.996	4660.0125
2286.87094	4658.8125
2289.74405	4662.3125
2292.61534	4663.6125
2295.4848	4638.0125
2298.35243	4618.3125
2301.21824	4601.2125
2304.08223	4608.5125
2306.94439	4606.7125
2309.80474	4620.7125
2312.66327	4595.2125
2315.51999	4589.0125
2318.37489	4583.8125
2321.22797	4573.6125
2324.07925	4559.8125
2326.92871	4550.6125
2329.77637	4566.3125
2332.62222	4546.3125
2335.46626	4524.3125
2338.3085	4508.7125
2341.14893	4512.4125
2343.98756	4508.7125
2346.8244	4497.8125
2349.65943	4490.9125
2352.49267	4500.0125
2355.32411	4484.9125
2358.15376	4476.6125
2360.98161	4486.2125
2363.80768	4476.6125
2366.63195	4486.3125
2369.45444	4470.2125
2372.27514	4482.0125
2375.09405	4475.6125
2377.91118	4448.6125
2380.72652	4455.1125
2383.54009	4441.9125
2386.35187	4417.6125
2389.16188	4400.8125
2391.97011	4395.0125
2394.77657	4381.0125
2397.58125	4377.4125
2400.38416	4367.4125
2403.18529	4363.4125
2405.98466	4350.0125
2408.78226	4335.4125
2411.57809	4321.8125
2414.37216	4327.4125
2417.16446	4312.3125
2419.955	4323.5125
2422.74378	4309.2125
2425.5308	4290.0125
2428.31606	4297.1125
2431.09956	4286.5125
2433.88131	4268.1125
2436.6613	4279.6125
2439.43954	4275.9125
2442.21603	4271.3125
2444.99077	4287.0125
2447.76377	4270.4125
2450.53501	4270.3125
2453.30451	4265.9125
2456.07226	4260.9125
2458.83827	4249.7125
2461.60254	4246.6125
2464.36507	4219.3125
2467.12586	4222.5125
2469.88492	4217.2125
2472.64224	4221.3125
2475.39782	4210.5125
2478.15167	4214.6125
2480.90379	4204.1125
2483.65417	4194.2125
2486.40283	4189.1125
2489.14976	4204.7125
2491.89497	4199.8125
2494.63845	4197.9125
2497.3802	4185.2125
2500.12024	4167.1125
2502.85855	4170.6125
2505.59514	4174.1125
2508.33002	4159.5125
2511.06318	4142.8125
2513.79462	4129.3125
2516.52435	4119.4125
2519.25237	4114.9125
2521.97867	4096.8125
2524.70327	4107.0125
2527.42616	4071.7125
2530.14734	4071.8125
2532.86681	4067.3125
2535.58458	4077.3125
2538.30065	4083.5125
2541.01501	4074.1125
2543.72768	4060.8125
2546.43864	4056.3125
2549.14791	4055.4125
2551.85548	4043.5125
2554.56136	4028.2125
2557.26554	4032.9125
2559.96803	4023.0125
2562.66883	3992.8125
2565.36794	3993.4125
2568.06536	3981.9125
2570.7611	3969.2125
2573.45514	3959.4125
2576.14751	3959.7125
2578.83819	3940.0125
2581.52719	3945.7125
2584.21451	3927.3125
2586.90015	3936.6125
2589.58411	3916.5125
2592.2664	3889.5125
2594.94701	3897.7125
2597.62594	3891.2125
2600.30321	3885.1125
2602.9788	3870.3125
2605.65273	3879.4125
2608.32498	3866.4125
2610.99557	3851.8125
2613.66449	3860.9125
2616.33175	3856.8125
2618.99734	3838.9125
2621.66128	3835.6125
2624.32355	3813.3125
2626.98416	3808.0125
2629.64311	3795.1125
2632.30041	3793.5125
2634.95605	3785.5125
2637.61004	3777.1125
2640.26238	3763.6125
2642.91306	3758.5125
2645.56209	3765.6125
2648.20948	3754.5125
2650.85521	3750.1125
2653.4993	3740.8125
2656.14175	3756.2125
2658.78255	3732.1125
2661.42171	3730.5125
2664.05923	3748.7125
2666.6951	3745.6125
2669.32934	3751.5125
2671.96194	3746.9125
2674.59291	3755.3125
2677.22224	3747.3125
2679.84993	3754.0125
2682.476	3742.8125
2685.10043	3749.1125
2687.72324	3736.3125
2690.34441	3738.3125
2692.96396	3717.7125
2695.58188	3740.1125
2698.19818	3727.4125
2700.81285	3725.9125
2703.4259	3702.6125
2706.03733	3704.3125
2708.64714	3706.8125
2711.25533	3714.5125
2713.86191	3710.3125
2716.46687	3710.1125
2719.07021	3710.3125
2721.67194	3707.5125
2724.27206	3708.1125
2726.87057	3702.9125
2729.46747	3693.8125
2732.06276	3690.1125
2734.65644	3695.7125
2737.24852	3675.7125
2739.83899	3680.0125
2742.42786	3661.2125
2745.01513	3671.4125
2747.60079	3659.9125
2750.18486	3648.6125
2752.76733	3639.8125
2755.3482	3626.9125
2757.92747	3627.3125
2760.50515	3623.4125
2763.08123	3614.5125
2765.65573	3595.7125
2768.22863	3597.1125
2770.79994	3587.3125
2773.36967	3583.4125
2775.9378	3581.0125
2778.50435	3573.1125
2781.06932	3564.8125
2783.6327	3563.1125
2786.1945	3563.2125
2788.75471	3554.6125
2791.31335	3541.1125
2793.87041	3526.0125
2796.42589	3520.3125
2798.97979	3511.9125
2801.53212	3496.7125
2804.08288	3511.8125
2806.63206	3489.2125
2809.17967	3495.4125
2811.72571	3498.4125
2814.27018	3478.9125
2816.81308	3474.2125
2819.35442	3466.8125
2821.89419	3457.4125
2824.43239	3447.4125
2826.96904	3442.4125
2829.50412	3429.2125
2832.03763	3421.9125
2834.56959	3408.1125
2837.1	3400.8125
2839.62884	3386.5125
2842.15613	3410.9125
2844.68186	3400.1125
2847.20604	3392.6125
2849.72867	3385.8125
2852.24974	3372.0125
2854.76927	3369.6125
2857.28724	3365.4125
2859.80367	3367.8125
2862.31855	3343.8125
2864.83189	3349.1125
2867.34368	3353.9125
2869.85393	3360.3125
2872.36264	3335.8125
2874.8698	3342.8125
2877.37543	3341.6125
2879.87952	3339.6125
2882.38207	3317.0125
2884.88308	3314.6125
2887.38256	3322.0125
2889.88051	3320.7125
2892.37692	3298.3125
2894.8718	3303.6125
2897.36515	3305.0125
2899.85698	3287.4125
2902.34727	3289.2125
2904.83604	3306.0125
2907.32328	3305.7125
2909.809	3303.2125
2912.29319	3307.9125
2914.77587	3312.5125
2917.25702	3328.4125
2919.73665	3324.5125
2922.21476	3317.1125
2924.69136	3316.4125
2927.16644	3300.9125
2929.64	3294.3125
2932.11205	3279.2125
2934.58258	3260.5125
2937.05161	3282.1125
2939.51912	3270.9125
2941.98513	3256.0125
2944.44962	3259.1125
2946.91261	3241.1125
2949.37409	3247.0125
2951.83407	3246.5125
2954.29254	3235.0125
2956.74951	3233.7125
2959.20498	3222.9125
2961.65895	3227.1125
2964.11142	3222.0125
2966.56239	3212.5125
2969.01186	3228.6125
2971.45984	3217.8125
2973.90632	3211.3125
2976.35131	3200.6125
2978.7948	3197.5125
2981.23681	3187.3125
2983.67732	3181.2125
2986.11635	3182.4125
2988.55388	3184.0125
2990.98993	3152.4125
2993.4245	3153.7125
2995.85758	3141.2125
2998.28917	3143.0125
3000.71928	3136.2125
3003.14791	3119.9125
3005.57506	3108.2125
3008.00073	3107.7125
3010.42493	3094.8125
3012.84764	3088.8125
3015.26888	3086.8125
3017.68865	3073.5125
3020.10694	3072.5125
3022.52376	3054.1125
3024.9391	3053.5125
3027.35298	3043.0125
3029.76539	3035.9125
3032.17632	3021.4125
3034.5858	3015.1125
3036.9938	3018.7125
3039.40034	3006.8125
3041.80542	2986.0125
3044.20903	2976.1125
3046.61118	2979.7125
3049.01187	2979.5125
3051.4111	2973.1125
3053.80888	2957.3125
3056.20519	2947.2125
3058.60005	2945.5125
3060.99345	2934.9125
3063.3854	2938.6125
3065.7759	2929.3125
3068.16494	2911.1125
3070.55254	2911.0125
3072.93868	2901.1125
3075.32338	2886.0125
3077.70662	2884.5125
3080.08842	2873.5125
3082.46878	2876.2125
3084.84769	2860.7125
3087.22515	2861.7125
3089.60118	2854.4125
3091.97576	2854.4125
3094.3489	2849.4125
3096.72061	2838.9125
3099.09087	2838.2125
3101.4597	2836.6125
3103.82709	2834.8125
3106.19305	2819.8125
3108.55757	2832.4125
3110.92066	2819.0125
3113.28232	2807.3125
3115.64255	2827.1125
3118.00134	2802.1125
3120.35871	2801.3125
3122.71466	2785.7125
3125.06917	2789.0125
3127.42226	2768.5125
3129.77393	2768.6125
3132.12417	2766.9125
3134.47299	2759.8125
3136.82039	2744.5125
3139.16636	2750.2125
3141.51092	2756.9125
3143.85406	2755.6125
3146.19579	2740.7125
3148.53609	2748.4125
3150.87499	2744.4125
3153.21246	2731.9125
3155.54853	2744.6125
3157.88318	2733.5125
3160.21642	2732.3125
3162.54826	2722.0125
3164.87868	2727.8125
3167.2077	2718.3125
3169.5353	2713.1125
3171.86151	2720.8125
3174.18631	2706.7125
3176.5097	2695.7125
3178.83169	2695.9125
3181.15228	2682.5125
3183.47147	2674.4125
3185.78926	2669.1125
3188.10565	2654.0125
3190.42065	2642.6125
3192.73424	2645.8125
3195.04645	2659.1125
3197.35725	2653.0125
3199.66667	2635.0125
3201.97469	2634.7125
3204.28132	2630.9125
3206.58656	2642.1125
3208.8904	2622.5125
3211.19287	2637.7125
3213.49394	2654.2125
3215.79363	2636.6125
3218.09193	2643.6125
3220.38884	2643.0125
3222.68438	2637.8125
3224.97853	2620.3125
3227.2713	2623.1125
3229.56269	2624.3125
3231.8527	2618.6125
3234.14133	2598.9125
3236.42858	2589.6125
3238.71446	2596.0125
3240.99896	2579.1125
3243.28209	2565.8125
3245.56384	2573.7125
3247.84423	2581.7125
3250.12324	2556.2125
3252.40088	2550.2125
3254.67715	2547.3125
3256.95205	2542.0125
3259.22558	2545.3125
3261.49775	2544.5125
3263.76855	2538.0125
3266.03799	2545.1125
3268.30606	2536.8125
3270.57277	2528.8125
3272.83812	2520.8125
3275.10211	2521.1125
3277.36474	2510.2125
3279.62601	2514.0125
3281.88593	2498.3125
3284.14448	2495.7125
3286.40168	2498.8125
3288.65753	2491.8125
3290.91202	2495.3125
3293.16516	2481.1125
3295.41695	2474.1125
3297.66738	2465.8125
3299.91647	2467.1125
3302.16421	2451.6125
3304.4106	2421.0125
3306.65564	2406.7125
3308.89933	2392.1125
3311.14169	2363.9125
3313.38269	2342.0125
3315.62236	2334.0125
3317.86068	2318.0125
3320.09766	2305.3125
3322.3333	2276.7125
3324.5676	2265.4125
3326.80056	2222.4125
3329.03219	2209.8125
3331.26248	0.1125
3333.49143	-0.4875
3335.71905	-0.6875
