Data from AgNPs_UA_10uM_CRN_500uM_SU_RamanShift__66__13-16-20-267.txt Node

Date: Thu Aug 04 13:16:20 BST 2022
User: TCL
Spectrometer: QEP01345
Trigger mode: 4
Integration Time (sec): 1.000000E0
Scans to average: 10
Electric dark correction enabled: true
Nonlinearity correction enabled: false
Boxcar width: 0
XAxis mode: Raman Shifts
Number of Pixels in Spectrum: 1044
>>>>>Begin Spectral Data<<<<<
46.04893	0.075
50.45542	-0.825
54.85868	0.575
59.25871	-0.325
63.6555	23.375
68.04907	23.175
72.43941	22.575
76.82654	22.975
81.21044	25.075
85.59113	28.875
89.96862	28.075
94.34289	29.575
98.71396	29.175
103.08183	30.275
107.4465	31.775
111.80798	31.075
116.16626	32.475
120.52136	34.175
124.87327	37.575
129.222	39.375
133.56755	40.275
137.90993	43.375
142.24913	50.875
146.58517	59.575
150.91804	67.175
155.24774	83.775
159.57429	102.775
163.89768	137.675
168.21792	182.575
172.53501	249.275
176.84895	353.475
181.15975	504.275
185.46741	710.875
189.77193	992.475
194.07331	1332.375
198.37157	1714.175
202.6667	2142.075
206.9587	2541.575
211.24758	2950.375
215.53334	3362.775
219.81599	3789.175
224.09553	4293.975
228.37195	4843.275
232.64527	5412.075
236.91549	6007.175
241.18261	6546.875
245.44663	7000.775
249.70755	7378.175
253.96539	7705.175
258.22014	8024.175
262.4718	8230.175
266.72039	8382.975
270.96589	8412.575
275.20832	8386.475
279.44768	8274.475
283.68397	8134.375
287.91719	8055.075
292.14735	8046.975
296.37445	8142.875
300.59849	8303.975
304.81948	8539.175
309.03742	8734.175
313.25231	8840.175
317.46415	8784.575
321.67296	8547.675
325.87872	8306.875
330.08145	8166.575
334.28114	8161.175
338.47781	8257.075
342.67145	8393.975
346.86207	8554.275
351.04966	8875.775
355.23424	9161.775
359.4158	9401.975
363.59435	9501.875
367.76989	9562.575
371.94243	9574.475
376.11196	9594.175
380.27849	9611.775
384.44203	9665.575
388.60257	9755.175
392.76012	9876.875
396.91468	9978.675
401.06626	10108.575
405.21485	10197.675
409.36047	10090.975
413.50311	9904.275
417.64277	9674.475
421.77947	9524.175
425.9132	9440.675
430.04396	9408.575
434.17176	9429.075
438.2966	9529.575
442.41849	9626.775
446.53742	9842.775
450.6534	10016.775
454.76644	10161.575
458.87653	10238.775
462.98368	10304.775
467.08789	10292.375
471.18916	10135.575
475.2875	9947.575
479.38291	9805.475
483.4754	9675.675
487.56496	9647.075
491.6516	9613.675
495.73531	9601.975
499.81612	9656.775
503.89401	9728.775
507.96899	9785.475
512.04106	9800.075
516.11023	9858.275
520.1765	9874.375
524.23987	9867.975
528.30034	9883.475
532.35792	9857.475
536.41261	9802.475
540.46441	9746.675
544.51333	9716.875
548.55936	9777.575
552.60252	9893.275
556.64279	9999.175
560.6802	10140.475
564.71473	10220.975
568.7464	10262.375
572.7752	10185.675
576.80114	9963.875
580.82422	9819.675
584.84444	9741.675
588.86181	9755.775
592.87633	9764.675
596.888	9939.075
600.89682	10392.275
604.9028	11405.275
608.90594	13425.375
612.90624	15268.475
616.90371	14215.075
620.89834	11548.675
624.89015	10450.475
628.87913	10397.275
632.86528	10586.775
636.84862	10715.475
640.82913	10541.375
644.80683	10209.175
648.78172	9978.675
652.75379	10012.075
656.72306	10232.675
660.68952	10542.975
664.65319	10508.075
668.61405	10474.975
672.57211	10652.475
676.52738	10648.775
680.47986	10367.275
684.42955	10106.975
688.37646	10042.975
692.32058	10104.075
696.26192	10331.975
700.20048	10531.075
704.13626	10558.375
708.06928	10459.275
711.99952	10346.675
715.927	10298.575
719.85171	10361.375
723.77365	10371.875
727.69284	10305.675
731.60928	10225.875
735.52295	10220.775
739.43388	10242.975
743.34206	10303.675
747.24749	10282.175
751.15017	10252.275
755.05012	10326.175
758.94733	10617.075
762.8418	11304.275
766.73354	12338.975
770.62254	13156.675
774.50882	13405.175
778.39237	13208.675
782.27321	12641.275
786.15132	11761.375
790.02671	11096.575
793.89938	10684.075
797.76935	10488.775
801.6366	10367.375
805.50115	10301.775
809.36299	10288.075
813.22213	10254.375
817.07857	10257.875
820.93231	10253.375
824.78336	10255.675
828.63172	10277.575
832.47738	10295.375
836.32036	10304.475
840.16066	10268.175
843.99827	10263.175
847.8332	10272.775
851.66546	10296.575
855.49504	10307.675
859.32195	10338.475
863.1462	10301.675
866.96777	10295.875
870.78668	10354.275
874.60293	10357.675
878.41652	10418.675
882.22745	10477.175
886.03573	10529.575
889.84136	10543.075
893.64433	10504.175
897.44466	10462.375
901.24235	10441.875
905.0374	10425.175
908.8298	10391.875
912.61957	10374.175
916.40671	10394.675
920.19121	10394.875
923.97308	10405.375
927.75233	10489.875
931.52895	10571.475
935.30295	10519.075
939.07433	10386.475
942.84309	10318.975
946.60924	10279.375
950.37278	10271.975
954.13371	10260.475
957.89203	10264.075
961.64774	10272.175
965.40086	10262.275
969.15137	10251.975
972.89929	10250.075
976.64461	10241.775
980.38733	10242.975
984.12747	10261.775
987.86502	10278.075
991.59999	10356.875
995.33237	10401.175
999.06217	10444.975
1002.78939	10550.675
1006.51404	10729.775
1010.23611	10875.175
1013.95561	10964.775
1017.67255	11024.975
1021.38692	11012.075
1025.09872	10940.675
1028.80796	10832.275
1032.51465	10786.975
1036.21877	10792.175
1039.92035	10830.575
1043.61937	10901.875
1047.31584	10942.075
1051.00976	10961.975
1054.70114	11034.475
1058.38998	11066.975
1062.07627	11110.075
1065.76003	11162.075
1069.44126	11280.475
1073.11995	11536.275
1076.79611	11758.875
1080.46974	11907.575
1084.14085	11953.775
1087.80943	12014.375
1091.47549	12092.375
1095.13903	12177.475
1098.80005	12340.475
1102.45857	12539.375
1106.11456	12544.675
1109.76805	12280.475
1113.41903	12151.075
1117.06751	12211.775
1120.71348	12303.875
1124.35696	12409.975
1127.99793	12449.775
1131.63641	12277.375
1135.2724	12003.475
1138.90589	11742.575
1142.5369	11634.375
1146.16542	11554.075
1149.79145	11492.775
1153.415	11355.375
1157.03607	11312.675
1160.65467	11365.975
1164.27079	11526.975
1167.88443	11838.275
1171.49561	12236.575
1175.10432	12860.875
1178.71056	13672.675
1182.31434	14400.075
1185.91565	14704.875
1189.51451	14766.775
1193.11091	14714.475
1196.70485	14562.975
1200.29634	14302.075
1203.88538	13980.075
1207.47197	13564.075
1211.05612	13123.475
1214.63782	12686.775
1218.21708	12328.775
1221.79391	12111.975
1225.36829	11994.975
1228.94024	11956.375
1232.50976	11963.475
1236.07685	12053.875
1239.6415	12115.175
1243.20374	12181.775
1246.76355	12257.175
1250.32093	12312.775
1253.8759	12441.175
1257.42845	12687.775
1260.97859	13025.775
1264.52631	13353.375
1268.07163	13521.775
1271.61453	13632.275
1275.15503	13631.575
1278.69312	13559.975
1282.22882	13561.275
1285.76211	13593.975
1289.29301	13677.775
1292.82151	13879.175
1296.34761	14076.075
1299.87133	14403.675
1303.39266	14990.175
1306.9116	15865.475
1310.42815	16761.275
1313.94233	17107.175
1317.45412	16736.875
1320.96354	16080.575
1324.47058	15421.675
1327.97525	14819.275
1331.47754	14388.275
1334.97747	14260.075
1338.47502	14402.875
1341.97022	14873.975
1345.46305	15711.475
1348.95352	16929.475
1352.44163	18172.875
1355.92738	19271.975
1359.41078	20262.375
1362.89183	20796.175
1366.37053	19827.175
1369.84688	17538.475
1373.32088	15463.675
1376.79254	14276.175
1380.26186	13683.075
1383.72883	13280.875
1387.19347	12884.975
1390.65578	12535.475
1394.11575	12203.775
1397.57339	11950.475
1401.0287	11836.675
1404.48168	11861.775
1407.93234	11962.975
1411.38068	12161.175
1414.82669	12326.075
1418.27039	12400.675
1421.71177	12393.975
1425.15083	12315.175
1428.58758	12157.375
1432.02203	12083.675
1435.45416	12037.075
1438.88399	12000.575
1442.31151	11960.875
1445.73673	12014.375
1449.15965	12021.475
1452.58027	12022.675
1455.9986	11988.775
1459.41463	11984.675
1462.82837	12068.975
1466.23982	12283.075
1469.64898	12487.075
1473.05586	12651.975
1476.46045	12832.175
1479.86276	12992.275
1483.26279	13142.075
1486.66054	13373.075
1490.05602	13695.075
1493.44922	14276.875
1496.84016	15078.175
1500.22882	16213.675
1503.61521	17514.875
1506.99934	18591.275
1510.38121	19069.475
1513.76081	18722.275
1517.13816	17510.575
1520.51324	16028.175
1523.88607	14833.875
1527.25665	14061.475
1530.62498	13677.475
1533.99105	13527.675
1537.35488	13410.475
1540.71647	13303.475
1544.07581	13224.275
1547.4329	13110.175
1550.78776	12939.475
1554.14038	12823.275
1557.49077	12788.275
1560.83892	12893.375
1564.18484	13131.675
1567.52853	13433.575
1570.86999	13643.575
1574.20922	13724.175
1577.54624	13581.875
1580.88103	13138.275
1584.2136	12646.275
1587.54395	12339.875
1590.87208	12293.575
1594.19801	12549.275
1597.52172	12880.775
1600.84321	13015.875
1604.16251	12954.575
1607.47959	12799.575
1610.79447	12549.175
1614.10715	12158.175
1617.41763	11709.275
1620.7259	11373.475
1624.03199	11159.375
1627.33587	11076.075
1630.63757	11120.575
1633.93707	11362.475
1637.23439	11852.575
1640.52951	12664.475
1643.82246	13733.875
1647.11321	14858.675
1650.40179	15328.575
1653.68819	14750.475
1656.97241	13403.175
1660.25446	12100.675
1663.53433	11182.475
1666.81203	10635.275
1670.08756	10321.075
1673.36092	10133.875
1676.63211	9998.875
1679.90115	9889.375
1683.16801	9790.375
1686.43272	9714.275
1689.69527	9686.275
1692.95567	9642.775
1696.2139	9599.875
1699.46999	9587.075
1702.72392	9561.475
1705.97571	9542.975
1709.22535	9534.575
1712.47284	9541.275
1715.71819	9547.475
1718.96139	9539.175
1722.20246	9529.275
1725.44139	9501.475
1728.67818	9431.075
1731.91284	9415.075
1735.14537	9352.475
1738.37576	9320.575
1741.60403	9306.275
1744.83017	9303.175
1748.05418	9269.575
1751.27607	9229.375
1754.49584	9205.075
1757.71349	9215.175
1760.92903	9206.475
1764.14244	9159.375
1767.35375	9139.375
1770.56294	9111.975
1773.77002	9109.675
1776.97499	9093.675
1780.17785	9045.575
1783.37861	9021.775
1786.57727	9009.575
1789.77382	9017.775
1792.96828	8995.175
1796.16064	8972.475
1799.3509	8953.075
1802.53907	8949.875
1805.72514	8937.375
1808.90913	8882.275
1812.09102	8895.475
1815.27083	8843.975
1818.44856	8833.275
1821.6242	8800.275
1824.79776	8804.575
1827.96924	8765.875
1831.13864	8776.675
1834.30597	8741.775
1837.47122	8725.875
1840.6344	8698.675
1843.7955	8693.675
1846.95454	8707.275
1850.11151	8694.075
1853.26642	8681.675
1856.41926	8682.475
1859.57004	8680.075
1862.71876	8669.275
1865.86542	8660.875
1869.01003	8645.875
1872.15258	8606.675
1875.29308	8597.175
1878.43152	8604.975
1881.56792	8587.675
1884.70227	8560.275
1887.83457	8535.675
1890.96482	8527.175
1894.09304	8503.675
1897.21921	8477.575
1900.34335	8490.275
1903.46544	8472.475
1906.58551	8462.575
1909.70353	8440.275
1912.81953	8449.275
1915.93349	8406.175
1919.04543	8373.475
1922.15534	8369.575
1925.26322	8369.175
1928.36908	8333.175
1931.47292	8314.875
1934.57473	8304.475
1937.67453	8280.475
1940.77232	8255.475
1943.86808	8224.275
1946.96184	8205.475
1950.05358	8197.175
1953.14331	8159.675
1956.23103	8133.175
1959.31675	8086.175
1962.40046	8095.175
1965.48217	8053.775
1968.56188	8014.875
1971.63959	7982.375
1974.7153	7983.075
1977.78901	7978.775
1980.86073	7951.675
1983.93046	7915.575
1986.99819	7888.675
1990.06394	7864.875
1993.1277	7839.275
1996.18947	7785.775
1999.24925	7759.675
2002.30706	7748.375
2005.36288	7710.575
2008.41672	7683.175
2011.46859	7640.375
2014.51848	7635.775
2017.56639	7619.475
2020.61233	7564.075
2023.6563	7569.975
2026.6983	7543.175
2029.73833	7505.275
2032.7764	7486.575
2035.8125	7466.375
2038.84664	7448.675
2041.87881	7424.975
2044.90903	7423.275
2047.93729	7402.675
2050.96359	7391.475
2053.98794	7358.675
2057.01034	7363.275
2060.03078	7358.175
2063.04927	7355.575
2066.06582	7320.075
2069.08042	7310.675
2072.09307	7291.475
2075.10378	7285.175
2078.11255	7272.675
2081.11938	7291.475
2084.12426	7267.775
2087.12722	7256.275
2090.12824	7269.675
2093.12732	7250.975
2096.12447	7265.475
2099.11969	7263.475
2102.11299	7274.575
2105.10435	7251.075
2108.09379	7264.775
2111.08131	7255.475
2114.0669	7247.075
2117.05057	7263.275
2120.03233	7269.075
2123.01216	7271.575
2125.99008	7274.775
2128.96609	7270.475
2131.94018	7266.375
2134.91236	7269.375
2137.88263	7262.175
2140.851	7270.375
2143.81746	7260.975
2146.78201	7256.775
2149.74466	7236.175
2152.7054	7252.275
2155.66425	7240.975
2158.6212	7251.375
2161.57625	7236.575
2164.52941	7225.075
2167.48067	7220.375
2170.43004	7205.075
2173.37752	7217.375
2176.32311	7188.175
2179.26681	7205.975
2182.20863	7219.775
2185.14856	7216.275
2188.08661	7181.175
2191.02278	7207.975
2193.95707	7187.875
2196.88948	7180.575
2199.82001	7165.375
2202.74867	7164.675
2205.67545	7152.875
2208.60037	7143.675
2211.52341	7126.075
2214.44458	7072.775
2217.36388	7089.175
2220.28132	7057.975
2223.1969	7047.375
2226.11061	7017.975
2229.02246	6988.075
2231.93245	6984.475
2234.84058	6967.075
2237.74686	6968.675
2240.65128	6943.175
2243.55385	6933.375
2246.45456	6924.875
2249.35343	6904.175
2252.25044	6897.675
2255.14561	6882.475
2258.03893	6894.375
2260.93041	6857.775
2263.82004	6867.075
2266.70783	6847.575
2269.59378	6833.875
2272.4779	6798.475
2275.36017	6787.575
2278.24061	6776.675
2281.11922	6746.475
2283.996	6734.675
2286.87094	6705.675
2289.74405	6702.175
2292.61534	6681.675
2295.4848	6680.275
2298.35243	6673.875
2301.21824	6677.875
2304.08223	6647.275
2306.94439	6638.575
2309.80474	6622.175
2312.66327	6626.675
2315.51999	6622.675
2318.37489	6611.775
2321.22797	6578.775
2324.07925	6579.275
2326.92871	6549.475
2329.77637	6559.675
2332.62222	6528.475
2335.46626	6528.575
2338.3085	6507.175
2341.14893	6491.275
2343.98756	6483.275
2346.8244	6486.575
2349.65943	6448.075
2352.49267	6444.775
2355.32411	6475.675
2358.15376	6443.675
2360.98161	6451.675
2363.80768	6439.775
2366.63195	6432.375
2369.45444	6431.875
2372.27514	6443.575
2375.09405	6399.675
2377.91118	6393.875
2380.72652	6375.275
2383.54009	6365.275
2386.35187	6359.375
2389.16188	6337.575
2391.97011	6312.275
2394.77657	6276.775
2397.58125	6263.275
2400.38416	6268.975
2403.18529	6260.475
2405.98466	6273.675
2408.78226	6227.875
2411.57809	6227.875
2414.37216	6223.875
2417.16446	6201.575
2419.955	6203.575
2422.74378	6191.275
2425.5308	6179.375
2428.31606	6176.775
2431.09956	6172.775
2433.88131	6166.275
2436.6613	6154.475
2439.43954	6150.675
2442.21603	6145.475
2444.99077	6127.675
2447.76377	6156.975
2450.53501	6138.875
2453.30451	6132.675
2456.07226	6121.375
2458.83827	6105.175
2461.60254	6086.375
2464.36507	6063.275
2467.12586	6052.875
2469.88492	6046.675
2472.64224	6063.675
2475.39782	6045.175
2478.15167	6038.775
2480.90379	6017.675
2483.65417	6002.675
2486.40283	6003.775
2489.14976	6022.575
2491.89497	6018.975
2494.63845	6010.675
2497.3802	5976.875
2500.12024	5977.175
2502.85855	5954.875
2505.59514	5972.175
2508.33002	5963.975
2511.06318	5928.875
2513.79462	5913.575
2516.52435	5904.375
2519.25237	5893.375
2521.97867	5889.775
2524.70327	5868.275
2527.42616	5858.475
2530.14734	5843.175
2532.86681	5845.075
2535.58458	5842.075
2538.30065	5835.575
2541.01501	5828.475
2543.72768	5827.475
2546.43864	5811.775
2549.14791	5785.875
2551.85548	5788.575
2554.56136	5774.075
2557.26554	5762.375
2559.96803	5757.175
2562.66883	5725.175
2565.36794	5716.775
2568.06536	5692.575
2570.7611	5688.175
2573.45514	5675.175
2576.14751	5660.875
2578.83819	5635.975
2581.52719	5635.275
2584.21451	5637.175
2586.90015	5611.075
2589.58411	5599.475
2592.2664	5594.875
2594.94701	5576.275
2597.62594	5570.075
2600.30321	5546.675
2602.9788	5543.275
2605.65273	5532.175
2608.32498	5528.275
2610.99557	5500.675
2613.66449	5506.375
2616.33175	5507.975
2618.99734	5496.175
2621.66128	5474.875
2624.32355	5450.775
2626.98416	5431.675
2629.64311	5400.275
2632.30041	5413.575
2634.95605	5420.675
2637.61004	5377.875
2640.26238	5388.075
2642.91306	5375.275
2645.56209	5373.075
2648.20948	5357.575
2650.85521	5368.275
2653.4993	5366.375
2656.14175	5336.075
2658.78255	5333.575
2661.42171	5334.375
2664.05923	5349.575
2666.6951	5334.975
2669.32934	5346.375
2671.96194	5342.575
2674.59291	5339.475
2677.22224	5334.675
2679.84993	5336.175
2682.476	5328.275
2685.10043	5336.775
2687.72324	5339.475
2690.34441	5327.275
2692.96396	5335.975
2695.58188	5311.275
2698.19818	5304.775
2700.81285	5305.975
2703.4259	5295.775
2706.03733	5285.375
2708.64714	5282.675
2711.25533	5279.875
2713.86191	5261.775
2716.46687	5283.175
2719.07021	5266.775
2721.67194	5260.375
2724.27206	5279.975
2726.87057	5282.375
2729.46747	5261.375
2732.06276	5264.775
2734.65644	5243.175
2737.24852	5234.375
2739.83899	5230.675
2742.42786	5213.875
2745.01513	5199.875
2747.60079	5187.075
2750.18486	5178.375
2752.76733	5193.875
2755.3482	5175.075
2757.92747	5158.775
2760.50515	5153.575
2763.08123	5153.575
2765.65573	5103.975
2768.22863	5109.475
2770.79994	5096.875
2773.36967	5110.275
2775.9378	5080.375
2778.50435	5063.375
2781.06932	5054.975
2783.6327	5067.875
2786.1945	5048.375
2788.75471	5045.075
2791.31335	5017.275
2793.87041	5025.975
2796.42589	5006.575
2798.97979	4995.175
2801.53212	4978.875
2804.08288	4968.275
2806.63206	4953.475
2809.17967	4952.975
2811.72571	4944.675
2814.27018	4930.575
2816.81308	4909.675
2819.35442	4895.275
2821.89419	4894.575
2824.43239	4897.775
2826.96904	4874.675
2829.50412	4866.775
2832.03763	4833.075
2834.56959	4850.975
2837.1	4829.875
2839.62884	4823.975
2842.15613	4801.175
2844.68186	4809.875
2847.20604	4817.975
2849.72867	4809.675
2852.24974	4779.175
2854.76927	4782.475
2857.28724	4766.075
2859.80367	4744.775
2862.31855	4736.675
2864.83189	4735.275
2867.34368	4739.275
2869.85393	4748.975
2872.36264	4710.475
2874.8698	4724.775
2877.37543	4719.375
2879.87952	4690.075
2882.38207	4673.675
2884.88308	4675.475
2887.38256	4679.275
2889.88051	4669.975
2892.37692	4673.175
2894.8718	4662.175
2897.36515	4660.575
2899.85698	4659.075
2902.34727	4657.375
2904.83604	4651.375
2907.32328	4663.375
2909.809	4651.775
2912.29319	4660.175
2914.77587	4653.275
2917.25702	4662.175
2919.73665	4665.275
2922.21476	4671.975
2924.69136	4637.175
2927.16644	4624.575
2929.64	4625.175
2932.11205	4599.375
2934.58258	4586.375
2937.05161	4595.475
2939.51912	4602.875
2941.98513	4611.575
2944.44962	4576.675
2946.91261	4570.975
2949.37409	4572.075
2951.83407	4570.375
2954.29254	4558.475
2956.74951	4546.375
2959.20498	4573.475
2961.65895	4556.175
2964.11142	4559.575
2966.56239	4528.175
2969.01186	4538.275
2971.45984	4549.475
2973.90632	4521.275
2976.35131	4500.475
2978.7948	4514.475
2981.23681	4496.975
2983.67732	4494.575
2986.11635	4480.375
2988.55388	4473.675
2990.98993	4458.475
2993.4245	4446.475
2995.85758	4431.475
2998.28917	4422.775
3000.71928	4423.575
3003.14791	4389.875
3005.57506	4395.375
3008.00073	4374.475
3010.42493	4350.175
3012.84764	4356.575
3015.26888	4355.075
3017.68865	4335.475
3020.10694	4326.075
3022.52376	4316.475
3024.9391	4303.475
3027.35298	4271.175
3029.76539	4264.675
3032.17632	4268.475
3034.5858	4261.775
3036.9938	4255.375
3039.40034	4230.675
3041.80542	4238.075
3044.20903	4197.875
3046.61118	4196.675
3049.01187	4184.275
3051.4111	4184.575
3053.80888	4168.775
3056.20519	4153.475
3058.60005	4133.575
3060.99345	4140.575
3063.3854	4133.975
3065.7759	4128.975
3068.16494	4114.875
3070.55254	4100.475
3072.93868	4072.875
3075.32338	4056.475
3077.70662	4053.575
3080.08842	4056.675
3082.46878	4049.975
3084.84769	4024.075
3087.22515	4024.475
3089.60118	4022.275
3091.97576	4019.775
3094.3489	4016.875
3096.72061	4000.575
3099.09087	3984.375
3101.4597	3998.075
3103.82709	3988.275
3106.19305	3992.475
3108.55757	3996.875
3110.92066	3969.175
3113.28232	3955.275
3115.64255	3966.375
3118.00134	3944.975
3120.35871	3944.975
3122.71466	3929.575
3125.06917	3923.275
3127.42226	3904.775
3129.77393	3896.775
3132.12417	3886.375
3134.47299	3881.675
3136.82039	3884.375
3139.16636	3875.775
3141.51092	3885.475
3143.85406	3883.375
3146.19579	3864.175
3148.53609	3859.175
3150.87499	3854.475
3153.21246	3861.675
3155.54853	3860.375
3157.88318	3857.775
3160.21642	3845.375
3162.54826	3835.475
3164.87868	3821.275
3167.2077	3831.775
3169.5353	3834.775
3171.86151	3814.775
3174.18631	3815.075
3176.5097	3795.875
3178.83169	3778.375
3181.15228	3784.275
3183.47147	3772.875
3185.78926	3773.075
3188.10565	3732.475
3190.42065	3723.875
3192.73424	3739.075
3195.04645	3720.275
3197.35725	3719.275
3199.66667	3715.275
3201.97469	3712.075
3204.28132	3708.175
3206.58656	3717.475
3208.8904	3708.575
3211.19287	3712.275
3213.49394	3712.975
3215.79363	3704.375
3218.09193	3702.175
3220.38884	3704.375
3222.68438	3690.275
3224.97853	3694.575
3227.2713	3674.875
3229.56269	3682.675
3231.8527	3675.275
3234.14133	3657.575
3236.42858	3645.375
3238.71446	3628.575
3240.99896	3616.475
3243.28209	3628.975
3245.56384	3612.675
3247.84423	3604.075
3250.12324	3582.975
3252.40088	3586.075
3254.67715	3586.675
3256.95205	3583.675
3259.22558	3576.675
3261.49775	3589.575
3263.76855	3576.975
3266.03799	3571.275
3268.30606	3573.375
3270.57277	3570.575
3272.83812	3548.475
3275.10211	3549.475
3277.36474	3525.375
3279.62601	3521.775
3281.88593	3527.475
3284.14448	3516.375
3286.40168	3505.275
3288.65753	3500.575
3290.91202	3499.675
3293.16516	3480.475
3295.41695	3485.275
3297.66738	3468.675
3299.91647	3458.975
3302.16421	3428.675
3304.4106	3410.175
3306.65564	3393.875
3308.89933	3360.175
3311.14169	3328.675
3313.38269	3295.975
3315.62236	3282.375
3317.86068	3252.875
3320.09766	3235.675
3322.3333	3196.975
3324.5676	3170.875
3326.80056	3132.675
3329.03219	3119.375
3331.26248	0.975
3333.49143	0.475
3335.71905	-0.125
