Data from AgNPs_UA_5uM_CRN_500uM_SU_RamanShift__158__11-55-43-171.txt Node

Date: Thu Aug 04 11:55:43 BST 2022
User: TCL
Spectrometer: QEP01345
Trigger mode: 4
Integration Time (sec): 1.000000E0
Scans to average: 10
Electric dark correction enabled: true
Nonlinearity correction enabled: false
Boxcar width: 0
XAxis mode: Raman Shifts
Number of Pixels in Spectrum: 1044
>>>>>Begin Spectral Data<<<<<
46.04893	-0.125
50.45542	0.475
54.85868	0.275
59.25871	-0.625
63.6555	-57.025
68.04907	-40.425
72.43941	-72.225
76.82654	-57.325
81.21044	-58.325
85.59113	-48.325
89.96862	-74.425
94.34289	-56.225
98.71396	-76.725
103.08183	-56.025
107.4465	-49.025
111.80798	-55.525
116.16626	-44.225
120.52136	-72.325
124.87327	-51.025
129.222	-61.225
133.56755	-49.725
137.90993	-61.425
142.24913	-49.825
146.58517	-44.125
150.91804	-40.625
155.24774	-28.825
159.57429	-10.225
163.89768	-4.525
168.21792	38.275
172.53501	59.575
176.84895	141.375
181.15975	269.175
185.46741	420.275
189.77193	593.075
194.07331	889.375
198.37157	1171.875
202.6667	1449.175
206.9587	1776.775
211.24758	2086.975
215.53334	2407.075
219.81599	2757.875
224.09553	3151.775
228.37195	3593.475
232.64527	4050.675
236.91549	4527.475
241.18261	4886.475
245.44663	5159.475
249.70755	5355.875
253.96539	5485.375
258.22014	5598.175
262.4718	5659.975
266.72039	5680.175
270.96589	5644.675
275.20832	5545.575
279.44768	5436.675
283.68397	5334.175
287.91719	5266.575
292.14735	5300.875
296.37445	5456.775
300.59849	5733.075
304.81948	6039.575
309.03742	6414.375
313.25231	6624.475
317.46415	6572.775
321.67296	6204.475
325.87872	5809.875
330.08145	5633.875
334.28114	5586.875
338.47781	5663.675
342.67145	5805.175
346.86207	6027.475
351.04966	6414.975
355.23424	6786.675
359.4158	7060.075
363.59435	7086.975
367.76989	7017.975
371.94243	6909.775
376.11196	6786.275
380.27849	6713.175
384.44203	6659.475
388.60257	6615.775
392.76012	6612.175
396.91468	6736.675
401.06626	6895.375
405.21485	6900.575
409.36047	6757.575
413.50311	6456.075
417.64277	6183.775
421.77947	5983.775
425.9132	5907.375
430.04396	5897.875
434.17176	5951.975
438.2966	6037.875
442.41849	6141.975
446.53742	6252.275
450.6534	6348.775
454.76644	6412.875
458.87653	6425.875
462.98368	6406.875
467.08789	6351.675
471.18916	6291.675
475.2875	6167.075
479.38291	6047.975
483.4754	5970.675
487.56496	5935.075
491.6516	5866.475
495.73531	5894.175
499.81612	5906.475
503.89401	5996.275
507.96899	6046.475
512.04106	6155.775
516.11023	6232.075
520.1765	6326.275
524.23987	6344.675
528.30034	6341.475
532.35792	6258.275
536.41261	6221.075
540.46441	6130.975
544.51333	6085.875
548.55936	6126.075
552.60252	6238.375
556.64279	6349.775
560.6802	6478.175
564.71473	6603.475
568.7464	6796.575
572.7752	6756.275
576.80114	6450.275
580.82422	6212.975
584.84444	6120.575
588.86181	6101.675
592.87633	6136.975
596.888	6261.875
600.89682	6601.975
604.9028	7542.375
608.90594	9534.275
612.90624	11794.075
616.90371	10978.275
620.89834	8035.575
624.89015	6758.375
628.87913	6575.075
632.86528	6721.875
636.84862	6883.375
640.82913	6760.275
644.80683	6418.075
648.78172	6258.375
652.75379	6282.175
656.72306	6507.475
660.68952	6737.375
664.65319	6654.775
668.61405	6436.875
672.57211	6382.275
676.52738	6380.975
680.47986	6272.775
684.42955	6198.575
688.37646	6146.375
692.32058	6164.875
696.26192	6232.575
700.20048	6315.175
704.13626	6375.075
708.06928	6313.175
711.99952	6284.875
715.927	6255.475
719.85171	6304.175
723.77365	6349.975
727.69284	6323.475
731.60928	6320.775
735.52295	6287.375
739.43388	6327.075
743.34206	6346.675
747.24749	6375.275
751.15017	6367.475
755.05012	6436.375
758.94733	6800.075
762.8418	7579.175
766.73354	8854.775
770.62254	9788.275
774.50882	9879.475
778.39237	9407.375
782.27321	8530.375
786.15132	7542.175
790.02671	6897.375
793.89938	6515.575
797.76935	6427.875
801.6366	6343.275
805.50115	6297.375
809.36299	6292.675
813.22213	6286.375
817.07857	6278.875
820.93231	6280.075
824.78336	6308.875
828.63172	6331.975
832.47738	6345.175
836.32036	6348.675
840.16066	6308.975
843.99827	6289.475
847.8332	6285.375
851.66546	6297.775
855.49504	6313.275
859.32195	6338.775
863.1462	6325.675
866.96777	6335.875
870.78668	6314.675
874.60293	6349.675
878.41652	6375.175
882.22745	6430.575
886.03573	6470.375
889.84136	6455.475
893.64433	6464.475
897.44466	6471.675
901.24235	6440.975
905.0374	6445.675
908.8298	6384.775
912.61957	6342.375
916.40671	6290.675
920.19121	6339.275
923.97308	6449.175
927.75233	6496.475
931.52895	6572.475
935.30295	6542.775
939.07433	6401.875
942.84309	6293.975
946.60924	6256.375
950.37278	6210.175
954.13371	6227.575
957.89203	6215.075
961.64774	6232.775
965.40086	6230.975
969.15137	6179.575
972.89929	6244.775
976.64461	6222.875
980.38733	6253.375
984.12747	6234.875
987.86502	6250.675
991.59999	6300.575
995.33237	6341.675
999.06217	6420.175
1002.78939	6502.775
1006.51404	6630.875
1010.23611	6754.975
1013.95561	6823.475
1017.67255	6802.375
1021.38692	6784.275
1025.09872	6731.875
1028.80796	6639.875
1032.51465	6645.975
1036.21877	6629.175
1039.92035	6667.375
1043.61937	6697.175
1047.31584	6757.375
1051.00976	6799.575
1054.70114	6774.375
1058.38998	6767.175
1062.07627	6782.275
1065.76003	6818.375
1069.44126	6887.175
1073.11995	6983.775
1076.79611	7100.375
1080.46974	7261.875
1084.14085	7389.675
1087.80943	7512.975
1091.47549	7576.375
1095.13903	7466.575
1098.80005	7382.475
1102.45857	7271.375
1106.11456	7226.375
1109.76805	7191.375
1113.41903	7283.975
1117.06751	7472.975
1120.71348	7686.175
1124.35696	8023.675
1127.99793	8327.575
1131.63641	8159.475
1135.2724	7790.975
1138.90589	7496.475
1142.5369	7316.175
1146.16542	7228.075
1149.79145	7133.975
1153.415	7069.775
1157.03607	7058.075
1160.65467	7120.675
1164.27079	7316.375
1167.88443	7555.675
1171.49561	7944.275
1175.10432	8531.775
1178.71056	9337.175
1182.31434	10098.775
1185.91565	10340.275
1189.51451	10196.975
1193.11091	9964.675
1196.70485	9747.375
1200.29634	9541.475
1203.88538	9299.775
1207.47197	8876.675
1211.05612	8473.575
1214.63782	8105.875
1218.21708	7871.975
1221.79391	7724.475
1225.36829	7629.075
1228.94024	7630.175
1232.50976	7616.075
1236.07685	7626.575
1239.6415	7652.575
1243.20374	7698.375
1246.76355	7736.375
1250.32093	7827.675
1253.8759	7875.075
1257.42845	8072.875
1260.97859	8280.575
1264.52631	8497.575
1268.07163	8622.775
1271.61453	8768.875
1275.15503	8795.375
1278.69312	8781.575
1282.22882	8847.375
1285.76211	9033.775
1289.29301	9280.575
1292.82151	9546.275
1296.34761	9732.975
1299.87133	10132.675
1303.39266	10799.875
1306.9116	11854.675
1310.42815	13025.875
1313.94233	13422.375
1317.45412	12690.675
1320.96354	11603.475
1324.47058	10641.875
1327.97525	9935.575
1331.47754	9554.375
1334.97747	9511.675
1338.47502	9599.375
1341.97022	9934.975
1345.46305	10622.975
1348.95352	11645.275
1352.44163	12802.675
1355.92738	14027.875
1359.41078	15595.475
1362.89183	16955.575
1366.37053	16360.575
1369.84688	13674.575
1373.32088	11190.175
1376.79254	9896.175
1380.26186	9270.975
1383.72883	8916.175
1387.19347	8536.775
1390.65578	8237.675
1394.11575	7987.475
1397.57339	7838.775
1401.0287	7746.275
1404.48168	7706.375
1407.93234	7719.775
1411.38068	7767.775
1414.82669	7831.175
1418.27039	7903.775
1421.71177	7898.375
1425.15083	7824.075
1428.58758	7733.575
1432.02203	7760.375
1435.45416	7858.175
1438.88399	7850.075
1442.31151	7864.275
1445.73673	7915.675
1449.15965	7968.775
1452.58027	7996.075
1455.9986	7987.175
1459.41463	7979.975
1462.82837	8059.675
1466.23982	8237.775
1469.64898	8458.175
1473.05586	8588.075
1476.46045	8661.675
1479.86276	8743.175
1483.26279	8796.675
1486.66054	8999.875
1490.05602	9236.975
1493.44922	9737.075
1496.84016	10549.775
1500.22882	11825.275
1503.61521	13439.075
1506.99934	15073.875
1510.38121	16191.275
1513.76081	16103.475
1517.13816	14659.675
1520.51324	12637.875
1523.88607	11042.875
1527.25665	10081.875
1530.62498	9642.775
1533.99105	9428.975
1537.35488	9306.775
1540.71647	9218.575
1544.07581	9144.675
1547.4329	9040.275
1550.78776	8940.575
1554.14038	8820.875
1557.49077	8790.775
1560.83892	8864.475
1564.18484	9091.075
1567.52853	9400.975
1570.86999	9677.375
1574.20922	9812.575
1577.54624	9721.775
1580.88103	9257.075
1584.2136	8610.775
1587.54395	8301.775
1590.87208	8230.375
1594.19801	8394.975
1597.52172	8717.975
1600.84321	8880.175
1604.16251	8768.875
1607.47959	8579.775
1610.79447	8401.375
1614.10715	8099.375
1617.41763	7836.175
1620.7259	7548.775
1624.03199	7400.475
1627.33587	7344.575
1630.63757	7393.175
1633.93707	7620.575
1637.23439	8014.775
1640.52951	8687.375
1643.82246	9605.375
1647.11321	10689.175
1650.40179	11344.575
1653.68819	11027.475
1656.97241	9840.575
1660.25446	8533.075
1663.53433	7591.375
1666.81203	7007.175
1670.08756	6702.775
1673.36092	6547.675
1676.63211	6387.575
1679.90115	6297.775
1683.16801	6221.175
1686.43272	6144.175
1689.69527	6115.875
1692.95567	6020.175
1696.2139	6013.175
1699.46999	5970.975
1702.72392	5960.175
1705.97571	5969.075
1709.22535	5951.375
1712.47284	5976.575
1715.71819	5978.875
1718.96139	5997.275
1722.20246	5962.575
1725.44139	5958.675
1728.67818	5935.775
1731.91284	5873.475
1735.14537	5845.075
1738.37576	5809.975
1741.60403	5801.775
1744.83017	5777.675
1748.05418	5782.175
1751.27607	5799.675
1754.49584	5740.575
1757.71349	5710.975
1760.92903	5712.475
1764.14244	5665.675
1767.35375	5675.975
1770.56294	5644.475
1773.77002	5636.475
1776.97499	5632.475
1780.17785	5630.175
1783.37861	5619.375
1786.57727	5639.075
1789.77382	5580.075
1792.96828	5602.575
1796.16064	5602.375
1799.3509	5577.175
1802.53907	5594.675
1805.72514	5538.975
1808.90913	5533.175
1812.09102	5534.075
1815.27083	5538.575
1818.44856	5508.975
1821.6242	5508.075
1824.79776	5480.375
1827.96924	5476.675
1831.13864	5454.575
1834.30597	5471.675
1837.47122	5435.675
1840.6344	5431.875
1843.7955	5427.575
1846.95454	5400.475
1850.11151	5428.375
1853.26642	5389.775
1856.41926	5394.475
1859.57004	5387.975
1862.71876	5384.475
1865.86542	5400.175
1869.01003	5389.475
1872.15258	5376.575
1875.29308	5387.275
1878.43152	5366.775
1881.56792	5362.275
1884.70227	5324.075
1887.83457	5339.475
1890.96482	5306.575
1894.09304	5328.175
1897.21921	5310.475
1900.34335	5308.575
1903.46544	5275.275
1906.58551	5299.675
1909.70353	5295.375
1912.81953	5293.975
1915.93349	5265.575
1919.04543	5257.675
1922.15534	5232.975
1925.26322	5254.475
1928.36908	5218.975
1931.47292	5227.175
1934.57473	5247.575
1937.67453	5200.075
1940.77232	5171.975
1943.86808	5156.275
1946.96184	5161.375
1950.05358	5145.775
1953.14331	5108.275
1956.23103	5129.475
1959.31675	5071.075
1962.40046	5026.975
1965.48217	5061.375
1968.56188	5050.475
1971.63959	5037.075
1974.7153	5012.775
1977.78901	5011.175
1980.86073	5005.675
1983.93046	4973.175
1986.99819	4893.075
1990.06394	4891.575
1993.1277	4918.175
1996.18947	4904.075
1999.24925	4865.775
2002.30706	4866.675
2005.36288	4870.375
2008.41672	4847.775
2011.46859	4789.675
2014.51848	4813.975
2017.56639	4782.675
2020.61233	4768.975
2023.6563	4759.275
2026.6983	4715.275
2029.73833	4723.175
2032.7764	4731.075
2035.8125	4693.175
2038.84664	4692.075
2041.87881	4665.875
2044.90903	4689.575
2047.93729	4670.675
2050.96359	4648.375
2053.98794	4659.975
2057.01034	4658.175
2060.03078	4625.875
2063.04927	4618.175
2066.06582	4630.475
2069.08042	4604.975
2072.09307	4620.975
2075.10378	4615.375
2078.11255	4607.275
2081.11938	4621.475
2084.12426	4599.175
2087.12722	4581.675
2090.12824	4583.675
2093.12732	4594.875
2096.12447	4613.775
2099.11969	4588.675
2102.11299	4577.675
2105.10435	4595.975
2108.09379	4591.775
2111.08131	4586.075
2114.0669	4588.775
2117.05057	4587.775
2120.03233	4575.075
2123.01216	4605.675
2125.99008	4608.175
2128.96609	4606.775
2131.94018	4621.475
2134.91236	4597.775
2137.88263	4601.575
2140.851	4596.975
2143.81746	4621.475
2146.78201	4617.475
2149.74466	4587.875
2152.7054	4619.475
2155.66425	4597.175
2158.6212	4596.775
2161.57625	4553.575
2164.52941	4548.275
2167.48067	4565.175
2170.43004	4556.075
2173.37752	4577.575
2176.32311	4570.675
2179.26681	4562.975
2182.20863	4558.675
2185.14856	4551.975
2188.08661	4560.075
2191.02278	4568.175
2193.95707	4546.275
2196.88948	4524.975
2199.82001	4548.575
2202.74867	4529.275
2205.67545	4530.275
2208.60037	4537.075
2211.52341	4508.575
2214.44458	4504.575
2217.36388	4479.875
2220.28132	4489.975
2223.1969	4442.975
2226.11061	4461.975
2229.02246	4448.875
2231.93245	4442.275
2234.84058	4421.575
2237.74686	4411.475
2240.65128	4407.475
2243.55385	4405.975
2246.45456	4386.375
2249.35343	4403.375
2252.25044	4392.675
2255.14561	4386.075
2258.03893	4380.075
2260.93041	4361.075
2263.82004	4370.475
2266.70783	4365.775
2269.59378	4335.775
2272.4779	4321.075
2275.36017	4306.875
2278.24061	4317.075
2281.11922	4285.375
2283.996	4299.175
2286.87094	4273.775
2289.74405	4279.375
2292.61534	4258.175
2295.4848	4251.775
2298.35243	4246.075
2301.21824	4242.675
2304.08223	4221.975
2306.94439	4255.175
2309.80474	4238.175
2312.66327	4255.175
2315.51999	4218.675
2318.37489	4196.175
2321.22797	4198.975
2324.07925	4188.775
2326.92871	4177.175
2329.77637	4155.575
2332.62222	4163.275
2335.46626	4146.875
2338.3085	4145.275
2341.14893	4150.975
2343.98756	4169.175
2346.8244	4136.975
2349.65943	4130.775
2352.49267	4127.675
2355.32411	4136.575
2358.15376	4116.775
2360.98161	4134.475
2363.80768	4113.375
2366.63195	4127.675
2369.45444	4124.675
2372.27514	4118.975
2375.09405	4126.975
2377.91118	4100.575
2380.72652	4080.975
2383.54009	4080.675
2386.35187	4073.275
2389.16188	4063.275
2391.97011	4055.875
2394.77657	4050.775
2397.58125	4035.575
2400.38416	4025.575
2403.18529	4022.075
2405.98466	4005.975
2408.78226	3996.075
2411.57809	3997.075
2414.37216	3976.575
2417.16446	3989.375
2419.955	3954.875
2422.74378	3970.675
2425.5308	3952.875
2428.31606	3962.375
2431.09956	3957.375
2433.88131	3928.375
2436.6613	3942.575
2439.43954	3928.875
2442.21603	3911.775
2444.99077	3917.875
2447.76377	3927.475
2450.53501	3923.775
2453.30451	3900.675
2456.07226	3910.375
2458.83827	3901.375
2461.60254	3852.975
2464.36507	3908.975
2467.12586	3864.975
2469.88492	3878.675
2472.64224	3885.575
2475.39782	3858.975
2478.15167	3872.475
2480.90379	3867.275
2483.65417	3882.375
2486.40283	3867.575
2489.14976	3880.375
2491.89497	3871.975
2494.63845	3863.475
2497.3802	3849.475
2500.12024	3860.075
2502.85855	3856.075
2505.59514	3843.075
2508.33002	3833.375
2511.06318	3803.175
2513.79462	3824.975
2516.52435	3786.275
2519.25237	3753.775
2521.97867	3771.675
2524.70327	3774.475
2527.42616	3770.575
2530.14734	3772.175
2532.86681	3723.075
2535.58458	3734.875
2538.30065	3735.675
2541.01501	3752.375
2543.72768	3715.175
2546.43864	3732.275
2549.14791	3729.775
2551.85548	3709.075
2554.56136	3696.575
2557.26554	3701.575
2559.96803	3693.875
2562.66883	3707.975
2565.36794	3674.275
2568.06536	3631.775
2570.7611	3668.575
2573.45514	3648.975
2576.14751	3652.375
2578.83819	3626.275
2581.52719	3615.075
2584.21451	3623.975
2586.90015	3587.175
2589.58411	3586.575
2592.2664	3606.475
2594.94701	3584.475
2597.62594	3580.275
2600.30321	3524.975
2602.9788	3561.275
2605.65273	3539.775
2608.32498	3534.775
2610.99557	3553.375
2613.66449	3533.975
2616.33175	3533.875
2618.99734	3535.275
2621.66128	3537.475
2624.32355	3526.975
2626.98416	3503.475
2629.64311	3492.875
2632.30041	3492.875
2634.95605	3486.075
2637.61004	3458.675
2640.26238	3444.575
2642.91306	3438.075
2645.56209	3472.075
2648.20948	3466.675
2650.85521	3437.975
2653.4993	3463.375
2656.14175	3457.875
2658.78255	3440.575
2661.42171	3413.275
2664.05923	3461.575
2666.6951	3458.975
2669.32934	3473.475
2671.96194	3474.975
2674.59291	3445.975
2677.22224	3457.175
2679.84993	3456.975
2682.476	3455.175
2685.10043	3447.775
2687.72324	3423.075
2690.34441	3431.875
2692.96396	3414.775
2695.58188	3432.875
2698.19818	3428.775
2700.81285	3414.875
2703.4259	3405.375
2706.03733	3383.575
2708.64714	3379.975
2711.25533	3409.275
2713.86191	3413.575
2716.46687	3406.775
2719.07021	3417.375
2721.67194	3402.575
2724.27206	3414.575
2726.87057	3401.175
2729.46747	3389.475
2732.06276	3397.975
2734.65644	3363.675
2737.24852	3381.575
2739.83899	3364.275
2742.42786	3368.975
2745.01513	3372.575
2747.60079	3348.175
2750.18486	3345.975
2752.76733	3349.175
2755.3482	3344.275
2757.92747	3335.575
2760.50515	3318.175
2763.08123	3320.275
2765.65573	3316.075
2768.22863	3301.875
2770.79994	3300.675
2773.36967	3288.075
2775.9378	3280.575
2778.50435	3283.175
2781.06932	3280.175
2783.6327	3262.075
2786.1945	3288.075
2788.75471	3275.375
2791.31335	3260.275
2793.87041	3257.775
2796.42589	3230.575
2798.97979	3219.975
2801.53212	3235.775
2804.08288	3239.775
2806.63206	3218.475
2809.17967	3203.375
2811.72571	3213.075
2814.27018	3200.875
2816.81308	3194.475
2819.35442	3150.075
2821.89419	3180.475
2824.43239	3165.275
2826.96904	3182.275
2829.50412	3162.275
2832.03763	3167.975
2834.56959	3152.975
2837.1	3151.775
2839.62884	3155.775
2842.15613	3144.475
2844.68186	3155.675
2847.20604	3118.575
2849.72867	3115.975
2852.24974	3128.775
2854.76927	3086.675
2857.28724	3048.375
2859.80367	3116.775
2862.31855	3106.875
2864.83189	3102.875
2867.34368	3101.575
2869.85393	3114.875
2872.36264	3085.775
2874.8698	3081.175
2877.37543	3090.275
2879.87952	3077.475
2882.38207	3072.375
2884.88308	3068.175
2887.38256	3059.275
2889.88051	3057.475
2892.37692	3067.775
2894.8718	3041.675
2897.36515	3065.775
2899.85698	3050.975
2902.34727	3051.275
2904.83604	3046.275
2907.32328	3060.675
2909.809	3065.675
2912.29319	3061.375
2914.77587	3061.575
2917.25702	3071.875
2919.73665	3080.575
2922.21476	3074.875
2924.69136	3082.575
2927.16644	3055.275
2929.64	3067.275
2932.11205	3041.375
2934.58258	3042.275
2937.05161	3037.175
2939.51912	3044.675
2941.98513	3058.375
2944.44962	3030.075
2946.91261	2999.675
2949.37409	3017.975
2951.83407	3005.175
2954.29254	3000.975
2956.74951	3003.075
2959.20498	2985.075
2961.65895	2993.675
2964.11142	2977.775
2966.56239	2964.275
2969.01186	2982.375
2971.45984	2958.575
2973.90632	2953.375
2976.35131	2974.975
2978.7948	2963.875
2981.23681	2966.075
2983.67732	2961.675
2986.11635	2941.475
2988.55388	2921.675
2990.98993	2924.975
2993.4245	2929.475
2995.85758	2901.975
2998.28917	2901.075
3000.71928	2892.275
3003.14791	2874.975
3005.57506	2867.075
3008.00073	2851.775
3010.42493	2781.375
3012.84764	2845.075
3015.26888	2844.075
3017.68865	2839.275
3020.10694	2816.475
3022.52376	2818.075
3024.9391	2811.475
3027.35298	2791.975
3029.76539	2777.475
3032.17632	2780.475
3034.5858	2783.575
3036.9938	2773.475
3039.40034	2768.275
3041.80542	2756.175
3044.20903	2748.575
3046.61118	2744.475
3049.01187	2748.275
3051.4111	2733.475
3053.80888	2720.375
3056.20519	2708.075
3058.60005	2705.675
3060.99345	2722.075
3063.3854	2702.075
3065.7759	2675.675
3068.16494	2676.575
3070.55254	2658.475
3072.93868	2675.875
3075.32338	2656.475
3077.70662	2653.875
3080.08842	2641.875
3082.46878	2629.475
3084.84769	2647.775
3087.22515	2628.075
3089.60118	2645.075
3091.97576	2616.075
3094.3489	2626.475
3096.72061	2617.475
3099.09087	2601.375
3101.4597	2620.675
3103.82709	2607.275
3106.19305	2593.575
3108.55757	2609.875
3110.92066	2579.175
3113.28232	2587.275
3115.64255	2600.475
3118.00134	2591.875
3120.35871	2573.475
3122.71466	2553.275
3125.06917	2556.275
3127.42226	2557.575
3129.77393	2535.875
3132.12417	2541.975
3134.47299	2548.075
3136.82039	2527.075
3139.16636	2498.275
3141.51092	2520.375
3143.85406	2521.575
3146.19579	2498.775
3148.53609	2505.675
3150.87499	2511.575
3153.21246	2511.375
3155.54853	2516.975
3157.88318	2515.575
3160.21642	2516.975
3162.54826	2505.275
3164.87868	2514.375
3167.2077	2466.375
3169.5353	2492.775
3171.86151	2490.075
3174.18631	2478.775
3176.5097	2471.175
3178.83169	2482.175
3181.15228	2477.575
3183.47147	2451.875
3185.78926	2438.875
3188.10565	2448.275
3190.42065	2427.075
3192.73424	2448.075
3195.04645	2428.775
3197.35725	2411.175
3199.66667	2422.975
3201.97469	2420.775
3204.28132	2414.675
3206.58656	2423.675
3208.8904	2435.475
3211.19287	2414.375
3213.49394	2420.975
3215.79363	2393.775
3218.09193	2422.975
3220.38884	2402.075
3222.68438	2409.275
3224.97853	2379.275
3227.2713	2403.175
3229.56269	2378.375
3231.8527	2390.575
3234.14133	2379.975
3236.42858	2364.575
3238.71446	2342.575
3240.99896	2369.575
3243.28209	2337.075
3245.56384	2348.175
3247.84423	2331.975
3250.12324	2338.075
3252.40088	2332.175
3254.67715	2329.375
3256.95205	2310.675
3259.22558	2338.175
3261.49775	2334.475
3263.76855	2315.975
3266.03799	2321.675
3268.30606	2326.775
3270.57277	2320.775
3272.83812	2298.975
3275.10211	2297.475
3277.36474	2312.275
3279.62601	2311.675
3281.88593	2275.375
3284.14448	2258.675
3286.40168	2282.175
3288.65753	2270.975
3290.91202	2269.875
3293.16516	2243.275
3295.41695	2267.875
3297.66738	2263.375
3299.91647	2237.475
3302.16421	2243.275
3304.4106	2190.575
3306.65564	2213.475
3308.89933	2182.875
3311.14169	2176.775
3313.38269	2165.275
3315.62236	2134.275
3317.86068	2125.275
3320.09766	2108.075
3322.3333	2080.875
3324.5676	2077.675
3326.80056	2040.775
3329.03219	2034.775
3331.26248	0.475
3333.49143	-1.225
3335.71905	0.575
