Data from AgNPs_UA_5uM_CRN_500uM_SU_RamanShift__284__12-16-43-196.txt Node

Date: Thu Aug 04 12:16:43 BST 2022
User: TCL
Spectrometer: QEP01345
Trigger mode: 4
Integration Time (sec): 1.000000E0
Scans to average: 10
Electric dark correction enabled: true
Nonlinearity correction enabled: false
Boxcar width: 0
XAxis mode: Raman Shifts
Number of Pixels in Spectrum: 1044
>>>>>Begin Spectral Data<<<<<
46.04893	-0.175
50.45542	0.725
54.85868	-0.575
59.25871	-0.475
63.6555	-58.875
68.04907	-40.475
72.43941	-70.375
76.82654	-57.575
81.21044	-56.275
85.59113	-48.575
89.96862	-75.775
94.34289	-55.675
98.71396	-78.175
103.08183	-59.675
107.4465	-51.575
111.80798	-55.575
116.16626	-45.175
120.52136	-75.075
124.87327	-51.175
129.222	-63.775
133.56755	-51.175
137.90993	-65.175
142.24913	-51.975
146.58517	-46.375
150.91804	-40.375
155.24774	-29.475
159.57429	-7.975
163.89768	-8.775
168.21792	34.825
172.53501	54.225
176.84895	134.625
181.15975	262.825
185.46741	410.225
189.77193	585.925
194.07331	875.625
198.37157	1151.925
202.6667	1437.425
206.9587	1751.125
211.24758	2048.725
215.53334	2379.125
219.81599	2727.525
224.09553	3114.925
228.37195	3553.425
232.64527	3993.625
236.91549	4466.925
241.18261	4811.125
245.44663	5070.425
249.70755	5237.225
253.96539	5376.325
258.22014	5452.425
262.4718	5540.625
266.72039	5576.425
270.96589	5543.625
275.20832	5468.525
279.44768	5363.525
283.68397	5250.925
287.91719	5207.425
292.14735	5246.025
296.37445	5417.025
300.59849	5713.225
304.81948	6045.625
309.03742	6437.025
313.25231	6654.825
317.46415	6631.125
321.67296	6256.925
325.87872	5831.125
330.08145	5623.825
334.28114	5569.525
338.47781	5644.925
342.67145	5777.225
346.86207	6007.625
351.04966	6359.425
355.23424	6745.825
359.4158	7004.825
363.59435	7028.925
367.76989	6979.225
371.94243	6848.025
376.11196	6724.825
380.27849	6650.025
384.44203	6569.525
388.60257	6523.325
392.76012	6576.925
396.91468	6676.325
401.06626	6807.425
405.21485	6858.625
409.36047	6674.225
413.50311	6357.325
417.64277	6038.525
421.77947	5860.725
425.9132	5775.925
430.04396	5782.125
434.17176	5822.725
438.2966	5904.025
442.41849	5986.525
446.53742	6109.325
450.6534	6188.725
454.76644	6258.625
458.87653	6274.725
462.98368	6221.725
467.08789	6152.925
471.18916	6070.025
475.2875	5946.825
479.38291	5842.025
483.4754	5733.725
487.56496	5709.425
491.6516	5675.325
495.73531	5676.925
499.81612	5706.225
503.89401	5789.125
507.96899	5853.625
512.04106	5940.925
516.11023	6038.525
520.1765	6110.025
524.23987	6130.225
528.30034	6137.125
532.35792	6051.725
536.41261	5986.725
540.46441	5909.625
544.51333	5829.725
548.55936	5903.025
552.60252	6043.225
556.64279	6139.825
560.6802	6244.525
564.71473	6383.125
568.7464	6556.625
572.7752	6548.725
576.80114	6244.025
580.82422	6020.825
584.84444	5933.325
588.86181	5909.525
592.87633	5941.025
596.888	6040.925
600.89682	6414.325
604.9028	7395.525
608.90594	9515.725
612.90624	11859.225
616.90371	10968.425
620.89834	7883.625
624.89015	6526.825
628.87913	6307.725
632.86528	6467.325
636.84862	6638.125
640.82913	6513.925
644.80683	6144.125
648.78172	5966.925
652.75379	5970.025
656.72306	6208.625
660.68952	6455.425
664.65319	6368.425
668.61405	6124.225
672.57211	6059.525
676.52738	6075.125
680.47986	5982.425
684.42955	5855.925
688.37646	5822.925
692.32058	5824.225
696.26192	5899.225
700.20048	5969.725
704.13626	6052.125
708.06928	5976.325
711.99952	5955.525
715.927	5935.325
719.85171	5980.025
723.77365	6022.725
727.69284	5982.225
731.60928	5974.925
735.52295	5941.025
739.43388	5978.225
743.34206	6000.525
747.24749	6017.525
751.15017	6041.825
755.05012	6129.325
758.94733	6503.925
762.8418	7376.725
766.73354	8729.625
770.62254	9769.025
774.50882	9865.825
778.39237	9315.325
782.27321	8343.925
786.15132	7285.925
790.02671	6600.225
793.89938	6205.225
797.76935	6082.725
801.6366	5979.025
805.50115	5948.825
809.36299	5926.025
813.22213	5904.225
817.07857	5916.125
820.93231	5924.425
824.78336	5952.725
828.63172	5975.425
832.47738	5960.825
836.32036	5959.725
840.16066	5919.825
843.99827	5893.025
847.8332	5914.425
851.66546	5921.625
855.49504	5916.125
859.32195	5951.225
863.1462	5927.925
866.96777	5933.825
870.78668	5891.525
874.60293	5927.025
878.41652	5963.125
882.22745	6026.025
886.03573	6057.725
889.84136	6052.925
893.64433	6071.025
897.44466	6035.925
901.24235	6038.225
905.0374	6024.625
908.8298	5969.825
912.61957	5958.625
916.40671	5911.825
920.19121	5974.225
923.97308	6064.525
927.75233	6108.025
931.52895	6176.925
935.30295	6149.525
939.07433	5976.725
942.84309	5833.225
946.60924	5839.025
950.37278	5788.125
954.13371	5792.325
957.89203	5772.625
961.64774	5799.925
965.40086	5780.325
969.15137	5750.125
972.89929	5794.925
976.64461	5779.125
980.38733	5796.125
984.12747	5790.025
987.86502	5819.625
991.59999	5831.825
995.33237	5906.825
999.06217	5962.325
1002.78939	6038.325
1006.51404	6194.725
1010.23611	6291.325
1013.95561	6339.025
1017.67255	6349.425
1021.38692	6314.725
1025.09872	6244.625
1028.80796	6156.025
1032.51465	6175.625
1036.21877	6144.225
1039.92035	6201.225
1043.61937	6235.525
1047.31584	6298.825
1051.00976	6330.325
1054.70114	6317.125
1058.38998	6329.025
1062.07627	6334.125
1065.76003	6364.625
1069.44126	6440.325
1073.11995	6505.725
1076.79611	6653.325
1080.46974	6810.925
1084.14085	6981.625
1087.80943	7124.625
1091.47549	7135.125
1095.13903	7043.225
1098.80005	6918.025
1102.45857	6816.725
1106.11456	6801.325
1109.76805	6735.625
1113.41903	6848.225
1117.06751	7029.025
1120.71348	7308.225
1124.35696	7697.025
1127.99793	7973.725
1131.63641	7824.025
1135.2724	7415.625
1138.90589	7091.425
1142.5369	6871.625
1146.16542	6766.225
1149.79145	6679.725
1153.415	6611.525
1157.03607	6645.825
1160.65467	6734.525
1164.27079	6966.225
1167.88443	7229.125
1171.49561	7681.725
1175.10432	8314.925
1178.71056	9258.725
1182.31434	10040.825
1185.91565	10330.625
1189.51451	10177.825
1193.11091	9909.525
1196.70485	9657.925
1200.29634	9381.825
1203.88538	9092.225
1207.47197	8637.725
1211.05612	8120.425
1214.63782	7690.925
1218.21708	7453.925
1221.79391	7280.225
1225.36829	7218.025
1228.94024	7221.025
1232.50976	7250.625
1236.07685	7243.525
1239.6415	7287.225
1243.20374	7292.825
1246.76355	7326.525
1250.32093	7397.625
1253.8759	7486.325
1257.42845	7640.725
1260.97859	7850.125
1264.52631	8089.825
1268.07163	8263.425
1271.61453	8401.125
1275.15503	8436.125
1278.69312	8443.425
1282.22882	8541.525
1285.76211	8710.025
1289.29301	8974.825
1292.82151	9256.925
1296.34761	9479.325
1299.87133	9868.825
1303.39266	10599.225
1306.9116	11735.625
1310.42815	13024.825
1313.94233	13452.825
1317.45412	12652.325
1320.96354	11514.025
1324.47058	10464.225
1327.97525	9695.025
1331.47754	9280.625
1334.97747	9165.025
1338.47502	9257.825
1341.97022	9654.525
1345.46305	10405.925
1348.95352	11531.925
1352.44163	12881.925
1355.92738	14310.625
1359.41078	16068.825
1362.89183	17606.825
1366.37053	16982.325
1369.84688	14087.125
1373.32088	11308.225
1376.79254	9782.125
1380.26186	9072.525
1383.72883	8659.225
1387.19347	8210.225
1390.65578	7857.625
1394.11575	7604.325
1397.57339	7413.925
1401.0287	7327.525
1404.48168	7277.425
1407.93234	7295.525
1411.38068	7315.125
1414.82669	7386.025
1418.27039	7463.825
1421.71177	7470.625
1425.15083	7341.225
1428.58758	7257.925
1432.02203	7278.325
1435.45416	7356.425
1438.88399	7374.725
1442.31151	7378.025
1445.73673	7436.925
1449.15965	7467.025
1452.58027	7487.325
1455.9986	7472.925
1459.41463	7497.825
1462.82837	7619.925
1466.23982	7814.525
1469.64898	8012.825
1473.05586	8159.525
1476.46045	8254.625
1479.86276	8339.725
1483.26279	8476.125
1486.66054	8675.525
1490.05602	8973.025
1493.44922	9550.325
1496.84016	10434.325
1500.22882	11869.225
1503.61521	13708.325
1506.99934	15562.325
1510.38121	16750.125
1513.76081	16584.725
1517.13816	14966.525
1520.51324	12746.025
1523.88607	11025.525
1527.25665	10003.525
1530.62498	9490.725
1533.99105	9292.125
1537.35488	9182.625
1540.71647	9059.925
1544.07581	8922.425
1547.4329	8764.425
1550.78776	8641.225
1554.14038	8531.225
1557.49077	8488.825
1560.83892	8615.025
1564.18484	8843.925
1567.52853	9203.025
1570.86999	9529.325
1574.20922	9688.425
1577.54624	9580.225
1580.88103	9045.125
1584.2136	8315.325
1587.54395	7910.925
1590.87208	7831.025
1594.19801	7992.325
1597.52172	8367.525
1600.84321	8504.525
1604.16251	8356.925
1607.47959	8147.525
1610.79447	7977.425
1614.10715	7669.125
1617.41763	7373.225
1620.7259	7107.125
1624.03199	6944.425
1627.33587	6871.625
1630.63757	6912.225
1633.93707	7157.225
1637.23439	7557.125
1640.52951	8269.825
1643.82246	9260.725
1647.11321	10459.825
1650.40179	11232.525
1653.68819	10897.125
1656.97241	9641.525
1660.25446	8218.225
1663.53433	7194.325
1666.81203	6563.425
1670.08756	6211.825
1673.36092	6012.625
1676.63211	5875.025
1679.90115	5767.825
1683.16801	5691.425
1686.43272	5612.125
1689.69527	5560.325
1692.95567	5509.325
1696.2139	5504.125
1699.46999	5445.225
1702.72392	5449.525
1705.97571	5460.525
1709.22535	5440.625
1712.47284	5460.625
1715.71819	5466.425
1718.96139	5461.425
1722.20246	5462.825
1725.44139	5420.025
1728.67818	5394.525
1731.91284	5334.225
1735.14537	5325.225
1738.37576	5278.825
1741.60403	5266.725
1744.83017	5234.125
1748.05418	5241.725
1751.27607	5242.625
1754.49584	5186.625
1757.71349	5158.825
1760.92903	5175.325
1764.14244	5109.025
1767.35375	5127.125
1770.56294	5113.925
1773.77002	5085.025
1776.97499	5107.025
1780.17785	5089.125
1783.37861	5072.525
1786.57727	5090.025
1789.77382	5030.225
1792.96828	5051.525
1796.16064	5068.825
1799.3509	5020.925
1802.53907	5041.425
1805.72514	4990.825
1808.90913	4990.125
1812.09102	4978.725
1815.27083	4969.725
1818.44856	4960.725
1821.6242	4960.425
1824.79776	4943.925
1827.96924	4921.925
1831.13864	4909.825
1834.30597	4907.925
1837.47122	4888.225
1840.6344	4888.425
1843.7955	4890.525
1846.95454	4858.125
1850.11151	4892.625
1853.26642	4845.725
1856.41926	4859.125
1859.57004	4839.625
1862.71876	4848.225
1865.86542	4838.925
1869.01003	4839.825
1872.15258	4801.325
1875.29308	4826.225
1878.43152	4828.125
1881.56792	4791.225
1884.70227	4772.125
1887.83457	4783.125
1890.96482	4760.425
1894.09304	4758.125
1897.21921	4761.925
1900.34335	4767.025
1903.46544	4736.425
1906.58551	4751.125
1909.70353	4747.225
1912.81953	4726.425
1915.93349	4720.725
1919.04543	4715.425
1922.15534	4699.125
1925.26322	4700.425
1928.36908	4667.125
1931.47292	4685.825
1934.57473	4680.525
1937.67453	4646.325
1940.77232	4632.925
1943.86808	4614.125
1946.96184	4629.925
1950.05358	4592.325
1953.14331	4567.325
1956.23103	4583.225
1959.31675	4553.325
1962.40046	4498.125
1965.48217	4528.125
1968.56188	4515.325
1971.63959	4504.025
1974.7153	4489.425
1977.78901	4484.325
1980.86073	4474.425
1983.93046	4443.225
1986.99819	4348.025
1990.06394	4373.325
1993.1277	4382.025
1996.18947	4376.125
1999.24925	4341.625
2002.30706	4350.825
2005.36288	4340.825
2008.41672	4313.725
2011.46859	4282.125
2014.51848	4275.225
2017.56639	4271.125
2020.61233	4262.425
2023.6563	4245.725
2026.6983	4211.725
2029.73833	4206.125
2032.7764	4217.625
2035.8125	4165.825
2038.84664	4177.825
2041.87881	4151.725
2044.90903	4159.925
2047.93729	4150.525
2050.96359	4134.625
2053.98794	4141.325
2057.01034	4144.025
2060.03078	4134.925
2063.04927	4109.625
2066.06582	4114.825
2069.08042	4093.225
2072.09307	4115.625
2075.10378	4110.625
2078.11255	4099.525
2081.11938	4102.725
2084.12426	4084.125
2087.12722	4069.725
2090.12824	4072.425
2093.12732	4083.225
2096.12447	4092.925
2099.11969	4072.325
2102.11299	4077.825
2105.10435	4085.725
2108.09379	4087.025
2111.08131	4074.925
2114.0669	4083.225
2117.05057	4084.425
2120.03233	4056.125
2123.01216	4092.425
2125.99008	4077.925
2128.96609	4092.125
2131.94018	4105.325
2134.91236	4084.425
2137.88263	4083.325
2140.851	4100.325
2143.81746	4110.125
2146.78201	4092.625
2149.74466	4079.925
2152.7054	4092.125
2155.66425	4090.925
2158.6212	4085.425
2161.57625	4051.725
2164.52941	4035.625
2167.48067	4048.625
2170.43004	4040.825
2173.37752	4051.625
2176.32311	4042.025
2179.26681	4048.725
2182.20863	4060.025
2185.14856	4046.425
2188.08661	4043.425
2191.02278	4044.525
2193.95707	4030.225
2196.88948	4009.525
2199.82001	4039.025
2202.74867	4016.425
2205.67545	4013.525
2208.60037	4023.025
2211.52341	4005.025
2214.44458	3990.625
2217.36388	3999.325
2220.28132	3975.125
2223.1969	3948.625
2226.11061	3942.125
2229.02246	3932.925
2231.93245	3932.925
2234.84058	3923.325
2237.74686	3903.825
2240.65128	3908.925
2243.55385	3909.425
2246.45456	3872.925
2249.35343	3906.425
2252.25044	3879.425
2255.14561	3885.525
2258.03893	3892.225
2260.93041	3875.825
2263.82004	3857.125
2266.70783	3857.925
2269.59378	3829.225
2272.4779	3825.925
2275.36017	3829.025
2278.24061	3813.125
2281.11922	3786.625
2283.996	3801.725
2286.87094	3783.925
2289.74405	3785.225
2292.61534	3778.425
2295.4848	3772.625
2298.35243	3763.925
2301.21824	3745.525
2304.08223	3749.825
2306.94439	3757.225
2309.80474	3751.125
2312.66327	3752.325
2315.51999	3734.125
2318.37489	3717.325
2321.22797	3703.225
2324.07925	3716.225
2326.92871	3708.425
2329.77637	3685.225
2332.62222	3683.025
2335.46626	3655.025
2338.3085	3657.525
2341.14893	3681.525
2343.98756	3683.225
2346.8244	3647.925
2349.65943	3632.625
2352.49267	3638.625
2355.32411	3661.925
2358.15376	3651.325
2360.98161	3651.825
2363.80768	3641.725
2366.63195	3651.325
2369.45444	3653.825
2372.27514	3655.325
2375.09405	3648.425
2377.91118	3623.025
2380.72652	3622.125
2383.54009	3617.625
2386.35187	3608.225
2389.16188	3585.825
2391.97011	3589.325
2394.77657	3569.625
2397.58125	3572.125
2400.38416	3557.625
2403.18529	3543.225
2405.98466	3536.025
2408.78226	3533.225
2411.57809	3533.125
2414.37216	3515.525
2417.16446	3513.325
2419.955	3495.625
2422.74378	3506.925
2425.5308	3488.325
2428.31606	3499.325
2431.09956	3495.325
2433.88131	3470.025
2436.6613	3490.825
2439.43954	3471.225
2442.21603	3468.525
2444.99077	3461.425
2447.76377	3468.325
2450.53501	3462.125
2453.30451	3455.825
2456.07226	3458.825
2458.83827	3453.025
2461.60254	3419.225
2464.36507	3438.725
2467.12586	3416.125
2469.88492	3435.925
2472.64224	3422.825
2475.39782	3407.625
2478.15167	3428.125
2480.90379	3411.225
2483.65417	3435.625
2486.40283	3437.625
2489.14976	3430.125
2491.89497	3431.425
2494.63845	3418.825
2497.3802	3414.925
2500.12024	3403.525
2502.85855	3402.525
2505.59514	3392.525
2508.33002	3396.525
2511.06318	3365.025
2513.79462	3369.925
2516.52435	3347.225
2519.25237	3325.725
2521.97867	3318.825
2524.70327	3324.025
2527.42616	3317.225
2530.14734	3331.925
2532.86681	3303.025
2535.58458	3303.725
2538.30065	3290.925
2541.01501	3314.525
2543.72768	3297.225
2546.43864	3290.125
2549.14791	3279.525
2551.85548	3267.325
2554.56136	3260.925
2557.26554	3265.025
2559.96803	3250.225
2562.66883	3258.525
2565.36794	3233.225
2568.06536	3218.025
2570.7611	3235.425
2573.45514	3222.925
2576.14751	3195.425
2578.83819	3209.225
2581.52719	3192.025
2584.21451	3195.225
2586.90015	3171.225
2589.58411	3148.725
2592.2664	3171.725
2594.94701	3165.625
2597.62594	3165.125
2600.30321	3111.725
2602.9788	3105.025
2605.65273	3128.025
2608.32498	3117.925
2610.99557	3142.325
2613.66449	3101.225
2616.33175	3128.825
2618.99734	3130.325
2621.66128	3121.725
2624.32355	3096.625
2626.98416	3084.125
2629.64311	3087.225
2632.30041	3071.025
2634.95605	3059.625
2637.61004	3052.025
2640.26238	3028.225
2642.91306	3023.325
2645.56209	3054.125
2648.20948	3055.325
2650.85521	3022.925
2653.4993	3058.125
2656.14175	3044.525
2658.78255	3018.625
2661.42171	2995.125
2664.05923	3037.025
2666.6951	3047.325
2669.32934	3052.325
2671.96194	3056.725
2674.59291	3040.625
2677.22224	3028.125
2679.84993	3048.225
2682.476	3029.825
2685.10043	3030.125
2687.72324	3021.425
2690.34441	3005.025
2692.96396	3019.325
2695.58188	3033.325
2698.19818	3017.025
2700.81285	3008.925
2703.4259	2999.825
2706.03733	2977.725
2708.64714	2985.025
2711.25533	3003.425
2713.86191	2998.425
2716.46687	2993.425
2719.07021	2996.825
2721.67194	2997.525
2724.27206	3007.225
2726.87057	2999.725
2729.46747	2983.525
2732.06276	2984.925
2734.65644	2967.825
2737.24852	2975.025
2739.83899	2957.025
2742.42786	2979.825
2745.01513	2975.225
2747.60079	2955.525
2750.18486	2938.625
2752.76733	2954.325
2755.3482	2924.625
2757.92747	2937.625
2760.50515	2912.825
2763.08123	2921.525
2765.65573	2918.525
2768.22863	2913.825
2770.79994	2901.225
2773.36967	2895.325
2775.9378	2879.525
2778.50435	2888.825
2781.06932	2875.125
2783.6327	2861.225
2786.1945	2898.725
2788.75471	2867.425
2791.31335	2870.525
2793.87041	2872.225
2796.42589	2845.025
2798.97979	2830.125
2801.53212	2835.825
2804.08288	2851.825
2806.63206	2840.925
2809.17967	2817.725
2811.72571	2828.425
2814.27018	2838.925
2816.81308	2819.025
2819.35442	2785.425
2821.89419	2805.925
2824.43239	2783.225
2826.96904	2806.825
2829.50412	2798.925
2832.03763	2793.525
2834.56959	2782.525
2837.1	2778.925
2839.62884	2789.225
2842.15613	2770.325
2844.68186	2786.525
2847.20604	2744.325
2849.72867	2736.725
2852.24974	2749.825
2854.76927	2729.625
2857.28724	2694.125
2859.80367	2736.925
2862.31855	2757.225
2864.83189	2742.325
2867.34368	2745.725
2869.85393	2753.725
2872.36264	2717.725
2874.8698	2714.125
2877.37543	2740.825
2879.87952	2731.225
2882.38207	2701.425
2884.88308	2698.525
2887.38256	2704.725
2889.88051	2696.925
2892.37692	2713.525
2894.8718	2683.525
2897.36515	2717.525
2899.85698	2703.725
2902.34727	2688.025
2904.83604	2716.625
2907.32328	2720.825
2909.809	2708.925
2912.29319	2710.525
2914.77587	2707.425
2917.25702	2737.125
2919.73665	2723.225
2922.21476	2736.525
2924.69136	2730.625
2927.16644	2719.425
2929.64	2723.525
2932.11205	2705.225
2934.58258	2690.825
2937.05161	2676.725
2939.51912	2679.325
2941.98513	2700.025
2944.44962	2686.825
2946.91261	2653.725
2949.37409	2669.925
2951.83407	2655.525
2954.29254	2653.825
2956.74951	2650.625
2959.20498	2635.525
2961.65895	2644.725
2964.11142	2629.925
2966.56239	2627.725
2969.01186	2636.425
2971.45984	2611.625
2973.90632	2616.925
2976.35131	2632.525
2978.7948	2617.725
2981.23681	2609.525
2983.67732	2601.025
2986.11635	2586.525
2988.55388	2583.125
2990.98993	2578.125
2993.4245	2564.425
2995.85758	2551.125
2998.28917	2546.025
3000.71928	2546.025
3003.14791	2546.525
3005.57506	2529.925
3008.00073	2517.525
3010.42493	2444.325
3012.84764	2513.325
3015.26888	2524.425
3017.68865	2515.825
3020.10694	2457.225
3022.52376	2475.725
3024.9391	2475.025
3027.35298	2459.825
3029.76539	2458.125
3032.17632	2454.525
3034.5858	2442.225
3036.9938	2454.125
3039.40034	2446.625
3041.80542	2437.125
3044.20903	2423.225
3046.61118	2399.725
3049.01187	2425.125
3051.4111	2409.725
3053.80888	2385.325
3056.20519	2384.125
3058.60005	2382.925
3060.99345	2398.225
3063.3854	2375.025
3065.7759	2358.625
3068.16494	2351.025
3070.55254	2352.325
3072.93868	2349.825
3075.32338	2342.925
3077.70662	2346.025
3080.08842	2329.225
3082.46878	2309.225
3084.84769	2336.325
3087.22515	2309.325
3089.60118	2333.325
3091.97576	2312.925
3094.3489	2321.325
3096.72061	2313.425
3099.09087	2297.325
3101.4597	2310.025
3103.82709	2302.525
3106.19305	2293.125
3108.55757	2294.725
3110.92066	2282.825
3113.28232	2297.525
3115.64255	2283.325
3118.00134	2279.225
3120.35871	2259.625
3122.71466	2245.225
3125.06917	2243.225
3127.42226	2243.025
3129.77393	2222.125
3132.12417	2239.225
3134.47299	2241.025
3136.82039	2223.525
3139.16636	2203.625
3141.51092	2235.625
3143.85406	2223.125
3146.19579	2198.725
3148.53609	2199.525
3150.87499	2204.325
3153.21246	2203.225
3155.54853	2221.425
3157.88318	2217.525
3160.21642	2210.525
3162.54826	2215.425
3164.87868	2204.325
3167.2077	2174.925
3169.5353	2202.325
3171.86151	2203.225
3174.18631	2188.425
3176.5097	2176.325
3178.83169	2183.825
3181.15228	2185.725
3183.47147	2163.325
3185.78926	2144.125
3188.10565	2162.925
3190.42065	2123.525
3192.73424	2137.825
3195.04645	2132.925
3197.35725	2125.225
3199.66667	2136.425
3201.97469	2121.625
3204.28132	2129.325
3206.58656	2133.225
3208.8904	2133.125
3211.19287	2124.425
3213.49394	2109.725
3215.79363	2114.525
3218.09193	2122.925
3220.38884	2109.825
3222.68438	2115.325
3224.97853	2093.525
3227.2713	2122.225
3229.56269	2099.125
3231.8527	2104.625
3234.14133	2101.925
3236.42858	2083.825
3238.71446	2063.925
3240.99896	2084.425
3243.28209	2064.425
3245.56384	2068.725
3247.84423	2069.625
3250.12324	2068.825
3252.40088	2060.025
3254.67715	2050.425
3256.95205	2041.025
3259.22558	2052.825
3261.49775	2042.125
3263.76855	2043.425
3266.03799	2049.825
3268.30606	2050.825
3270.57277	2045.725
3272.83812	2026.525
3275.10211	2027.425
3277.36474	2037.125
3279.62601	2027.925
3281.88593	2011.925
3284.14448	1983.725
3286.40168	2014.225
3288.65753	1998.125
3290.91202	2004.525
3293.16516	1989.325
3295.41695	2000.425
3297.66738	2003.625
3299.91647	1982.725
3302.16421	1979.425
3304.4106	1945.125
3306.65564	1960.125
3308.89933	1919.625
3311.14169	1918.525
3313.38269	1905.525
3315.62236	1887.325
3317.86068	1877.225
3320.09766	1875.125
3322.3333	1845.125
3324.5676	1839.225
3326.80056	1805.025
3329.03219	1800.225
3331.26248	0.225
3333.49143	-0.075
3335.71905	0.225
