Data from AgNPs_UA_10uM_CRN_500uM_SU_RamanShift__19__13-08-30-257.txt Node

Date: Thu Aug 04 13:08:30 BST 2022
User: TCL
Spectrometer: QEP01345
Trigger mode: 4
Integration Time (sec): 1.000000E0
Scans to average: 10
Electric dark correction enabled: true
Nonlinearity correction enabled: false
Boxcar width: 0
XAxis mode: Raman Shifts
Number of Pixels in Spectrum: 1044
>>>>>Begin Spectral Data<<<<<
46.04893	-0.0875
50.45542	-0.2875
54.85868	1.0125
59.25871	-0.4875
63.6555	19.5125
68.04907	18.3125
72.43941	18.4125
76.82654	18.9125
81.21044	20.8125
85.59113	21.4125
89.96862	20.8125
94.34289	21.0125
98.71396	22.1125
103.08183	24.4125
107.4465	23.8125
111.80798	24.9125
116.16626	27.2125
120.52136	28.0125
124.87327	29.4125
129.222	32.8125
133.56755	31.3125
137.90993	35.6125
142.24913	40.1125
146.58517	45.4125
150.91804	51.5125
155.24774	63.6125
159.57429	81.2125
163.89768	106.0125
168.21792	139.2125
172.53501	196.6125
176.84895	272.6125
181.15975	390.4125
185.46741	554.0125
189.77193	772.8125
194.07331	1042.0125
198.37157	1333.1125
202.6667	1652.4125
206.9587	1983.3125
211.24758	2301.0125
215.53334	2636.9125
219.81599	2981.7125
224.09553	3378.0125
228.37195	3820.1125
232.64527	4280.5125
236.91549	4730.8125
241.18261	5118.5125
245.44663	5433.3125
249.70755	5687.0125
253.96539	5896.5125
258.22014	6071.8125
262.4718	6234.7125
266.72039	6324.8125
270.96589	6322.5125
275.20832	6278.8125
279.44768	6194.4125
283.68397	6075.7125
287.91719	6014.4125
292.14735	6035.8125
296.37445	6158.1125
300.59849	6368.5125
304.81948	6641.6125
309.03742	6881.1125
313.25231	7060.7125
317.46415	7004.2125
321.67296	6719.8125
325.87872	6407.4125
330.08145	6263.7125
334.28114	6208.5125
338.47781	6285.0125
342.67145	6436.8125
346.86207	6645.0125
351.04966	6914.3125
355.23424	7207.1125
359.4158	7423.4125
363.59435	7484.0125
367.76989	7457.5125
371.94243	7406.0125
376.11196	7358.9125
380.27849	7343.5125
384.44203	7327.8125
388.60257	7364.0125
392.76012	7418.5125
396.91468	7526.1125
401.06626	7668.0125
405.21485	7701.9125
409.36047	7604.3125
413.50311	7350.5125
417.64277	7110.3125
421.77947	6969.3125
425.9132	6875.2125
430.04396	6863.2125
434.17176	6879.2125
438.2966	6951.8125
442.41849	7064.1125
446.53742	7200.2125
450.6534	7353.2125
454.76644	7425.4125
458.87653	7480.5125
462.98368	7498.7125
467.08789	7441.5125
471.18916	7342.3125
475.2875	7188.4125
479.38291	7042.6125
483.4754	6979.5125
487.56496	6891.8125
491.6516	6887.9125
495.73531	6868.6125
499.81612	6915.4125
503.89401	6980.3125
507.96899	7025.1125
512.04106	7072.9125
516.11023	7140.7125
520.1765	7177.8125
524.23987	7189.4125
528.30034	7177.6125
532.35792	7158.4125
536.41261	7097.6125
540.46441	7011.8125
544.51333	6993.1125
548.55936	7028.9125
552.60252	7129.1125
556.64279	7249.5125
560.6802	7368.3125
564.71473	7472.5125
568.7464	7567.5125
572.7752	7544.0125
576.80114	7265.6125
580.82422	7115.2125
584.84444	7034.9125
588.86181	7015.7125
592.87633	7040.3125
596.888	7149.1125
600.89682	7518.9125
604.9028	8448.4125
608.90594	10353.0125
612.90624	12269.3125
616.90371	11303.2125
620.89834	8685.0125
624.89015	7600.2125
628.87913	7499.9125
632.86528	7670.3125
636.84862	7777.7125
640.82913	7586.0125
644.80683	7269.8125
648.78172	7092.5125
652.75379	7114.8125
656.72306	7325.2125
660.68952	7575.6125
664.65319	7512.8125
668.61405	7398.8125
672.57211	7445.5125
676.52738	7438.4125
680.47986	7264.2125
684.42955	7095.6125
688.37646	7053.9125
692.32058	7084.2125
696.26192	7219.7125
700.20048	7355.4125
704.13626	7400.2125
708.06928	7316.4125
711.99952	7223.2125
715.927	7190.0125
719.85171	7259.8125
723.77365	7265.4125
727.69284	7232.0125
731.60928	7176.7125
735.52295	7171.3125
739.43388	7201.9125
743.34206	7232.3125
747.24749	7202.2125
751.15017	7215.8125
755.05012	7314.0125
758.94733	7600.3125
762.8418	8338.4125
766.73354	9390.8125
770.62254	10181.9125
774.50882	10354.5125
778.39237	9989.6125
782.27321	9309.5125
786.15132	8444.5125
790.02671	7813.5125
793.89938	7501.6125
797.76935	7331.3125
801.6366	7241.8125
805.50115	7193.5125
809.36299	7159.3125
813.22213	7166.6125
817.07857	7143.7125
820.93231	7162.4125
824.78336	7184.8125
828.63172	7178.1125
832.47738	7192.6125
836.32036	7182.7125
840.16066	7128.0125
843.99827	7130.6125
847.8332	7131.3125
851.66546	7167.4125
855.49504	7167.0125
859.32195	7172.6125
863.1462	7186.7125
866.96777	7152.0125
870.78668	7173.6125
874.60293	7188.0125
878.41652	7222.8125
882.22745	7295.6125
886.03573	7338.9125
889.84136	7338.5125
893.64433	7289.7125
897.44466	7285.0125
901.24235	7271.6125
905.0374	7260.7125
908.8298	7245.5125
912.61957	7205.8125
916.40671	7208.4125
920.19121	7222.9125
923.97308	7256.3125
927.75233	7319.5125
931.52895	7411.0125
935.30295	7346.9125
939.07433	7218.3125
942.84309	7165.0125
946.60924	7114.9125
950.37278	7087.7125
954.13371	7087.3125
957.89203	7098.2125
961.64774	7081.6125
965.40086	7083.4125
969.15137	7073.5125
972.89929	7081.4125
976.64461	7076.6125
980.38733	7076.6125
984.12747	7080.5125
987.86502	7095.8125
991.59999	7140.6125
995.33237	7179.0125
999.06217	7244.8125
1002.78939	7330.8125
1006.51404	7468.4125
1010.23611	7613.0125
1013.95561	7654.3125
1017.67255	7679.6125
1021.38692	7662.6125
1025.09872	7624.0125
1028.80796	7529.2125
1032.51465	7510.9125
1036.21877	7540.8125
1039.92035	7523.5125
1043.61937	7571.9125
1047.31584	7618.6125
1051.00976	7647.1125
1054.70114	7643.1125
1058.38998	7671.7125
1062.07627	7707.9125
1065.76003	7767.4125
1069.44126	7838.6125
1073.11995	7994.4125
1076.79611	8180.7125
1080.46974	8308.2125
1084.14085	8396.5125
1087.80943	8495.8125
1091.47549	8507.0125
1095.13903	8527.5125
1098.80005	8541.0125
1102.45857	8623.2125
1106.11456	8591.5125
1109.76805	8455.1125
1113.41903	8439.8125
1117.06751	8544.5125
1120.71348	8706.1125
1124.35696	8910.9125
1127.99793	9035.4125
1131.63641	8892.3125
1135.2724	8592.6125
1138.90589	8342.7125
1142.5369	8209.2125
1146.16542	8122.3125
1149.79145	8058.3125
1153.415	7972.1125
1157.03607	7955.1125
1160.65467	8027.8125
1164.27079	8220.7125
1167.88443	8493.2125
1171.49561	8881.7125
1175.10432	9473.2125
1178.71056	10202.6125
1182.31434	10890.6125
1185.91565	11115.6125
1189.51451	11120.2125
1193.11091	11014.0125
1196.70485	10828.5125
1200.29634	10608.3125
1203.88538	10313.8125
1207.47197	9905.6125
1211.05612	9503.1125
1214.63782	9086.0125
1218.21708	8797.6125
1221.79391	8598.3125
1225.36829	8552.9125
1228.94024	8520.3125
1232.50976	8531.3125
1236.07685	8581.5125
1239.6415	8649.9125
1243.20374	8660.1125
1246.76355	8706.6125
1250.32093	8789.7125
1253.8759	8925.3125
1257.42845	9133.0125
1260.97859	9372.9125
1264.52631	9622.6125
1268.07163	9802.2125
1271.61453	9901.0125
1275.15503	9894.4125
1278.69312	9842.8125
1282.22882	9874.3125
1285.76211	9984.5125
1289.29301	10159.6125
1292.82151	10378.4125
1296.34761	10570.9125
1299.87133	10885.4125
1303.39266	11466.0125
1306.9116	12379.5125
1310.42815	13394.1125
1313.94233	13791.6125
1317.45412	13247.2125
1320.96354	12440.5125
1324.47058	11707.1125
1327.97525	11105.2125
1331.47754	10733.5125
1334.97747	10612.6125
1338.47502	10739.1125
1341.97022	11120.8125
1345.46305	11855.4125
1348.95352	12915.3125
1352.44163	14117.8125
1355.92738	15317.7125
1359.41078	16564.1125
1362.89183	17446.6125
1366.37053	16542.6125
1369.84688	14121.7125
1373.32088	11969.0125
1376.79254	10776.5125
1380.26186	10202.2125
1383.72883	9818.7125
1387.19347	9458.4125
1390.65578	9157.1125
1394.11575	8867.2125
1397.57339	8665.9125
1401.0287	8594.5125
1404.48168	8580.8125
1407.93234	8644.1125
1411.38068	8783.1125
1414.82669	8887.5125
1418.27039	8949.0125
1421.71177	8945.9125
1425.15083	8872.0125
1428.58758	8751.2125
1432.02203	8729.4125
1435.45416	8757.2125
1438.88399	8726.5125
1442.31151	8718.5125
1445.73673	8740.2125
1449.15965	8787.1125
1452.58027	8787.5125
1455.9986	8749.2125
1459.41463	8765.6125
1462.82837	8855.3125
1466.23982	8999.3125
1469.64898	9214.2125
1473.05586	9390.3125
1476.46045	9470.8125
1479.86276	9598.8125
1483.26279	9729.1125
1486.66054	9931.5125
1490.05602	10248.4125
1493.44922	10771.4125
1496.84016	11530.2125
1500.22882	12677.3125
1503.61521	14074.7125
1506.99934	15365.2125
1510.38121	16187.3125
1513.76081	16018.2125
1517.13816	14762.9125
1520.51324	13084.7125
1523.88607	11776.7125
1527.25665	10919.5125
1530.62498	10516.4125
1533.99105	10312.8125
1537.35488	10194.3125
1540.71647	10077.5125
1544.07581	9992.4125
1547.4329	9867.4125
1550.78776	9709.3125
1554.14038	9634.2125
1557.49077	9599.9125
1560.83892	9707.5125
1564.18484	9954.4125
1567.52853	10229.2125
1570.86999	10390.1125
1574.20922	10511.6125
1577.54624	10366.7125
1580.88103	9914.8125
1584.2136	9402.9125
1587.54395	9079.4125
1590.87208	9060.6125
1594.19801	9284.7125
1597.52172	9603.3125
1600.84321	9752.2125
1604.16251	9656.7125
1607.47959	9517.3125
1610.79447	9301.1125
1614.10715	8974.4125
1617.41763	8597.1125
1620.7259	8303.6125
1624.03199	8127.9125
1627.33587	8072.1125
1630.63757	8125.4125
1633.93707	8367.7125
1637.23439	8817.8125
1640.52951	9562.6125
1643.82246	10636.5125
1647.11321	11723.9125
1650.40179	12293.7125
1653.68819	11807.2125
1656.97241	10508.1125
1660.25446	9169.5125
1663.53433	8248.9125
1666.81203	7703.6125
1670.08756	7374.4125
1673.36092	7175.4125
1676.63211	7068.1125
1679.90115	6964.3125
1683.16801	6873.5125
1686.43272	6818.0125
1689.69527	6764.3125
1692.95567	6754.7125
1696.2139	6695.4125
1699.46999	6693.0125
1702.72392	6682.5125
1705.97571	6654.5125
1709.22535	6661.6125
1712.47284	6678.5125
1715.71819	6652.0125
1718.96139	6660.6125
1722.20246	6648.6125
1725.44139	6626.0125
1728.67818	6594.7125
1731.91284	6558.5125
1735.14537	6502.5125
1738.37576	6499.7125
1741.60403	6465.0125
1744.83017	6442.1125
1748.05418	6435.9125
1751.27607	6410.1125
1754.49584	6414.1125
1757.71349	6398.5125
1760.92903	6386.0125
1764.14244	6364.3125
1767.35375	6341.9125
1770.56294	6324.1125
1773.77002	6317.1125
1776.97499	6297.8125
1780.17785	6269.8125
1783.37861	6240.4125
1786.57727	6233.8125
1789.77382	6242.0125
1792.96828	6213.5125
1796.16064	6197.6125
1799.3509	6203.5125
1802.53907	6197.1125
1805.72514	6201.9125
1808.90913	6152.2125
1812.09102	6157.8125
1815.27083	6137.6125
1818.44856	6092.8125
1821.6242	6108.2125
1824.79776	6057.4125
1827.96924	6084.2125
1831.13864	6051.6125
1834.30597	6064.6125
1837.47122	6033.8125
1840.6344	6027.7125
1843.7955	6011.7125
1846.95454	6008.4125
1850.11151	6024.8125
1853.26642	6012.1125
1856.41926	6005.0125
1859.57004	6005.2125
1862.71876	5997.9125
1865.86542	6015.2125
1869.01003	5991.2125
1872.15258	5963.7125
1875.29308	5977.3125
1878.43152	5952.2125
1881.56792	5947.3125
1884.70227	5923.9125
1887.83457	5922.8125
1890.96482	5909.2125
1894.09304	5897.9125
1897.21921	5891.2125
1900.34335	5875.0125
1903.46544	5848.3125
1906.58551	5868.6125
1909.70353	5866.7125
1912.81953	5840.7125
1915.93349	5833.9125
1919.04543	5806.9125
1922.15534	5799.2125
1925.26322	5805.6125
1928.36908	5777.6125
1931.47292	5756.4125
1934.57473	5754.0125
1937.67453	5726.4125
1940.77232	5722.3125
1943.86808	5705.4125
1946.96184	5691.3125
1950.05358	5682.8125
1953.14331	5655.1125
1956.23103	5656.7125
1959.31675	5614.1125
1962.40046	5596.3125
1965.48217	5587.9125
1968.56188	5578.2125
1971.63959	5558.0125
1974.7153	5544.6125
1977.78901	5538.9125
1980.86073	5519.4125
1983.93046	5491.7125
1986.99819	5447.4125
1990.06394	5460.0125
1993.1277	5427.8125
1996.18947	5411.2125
1999.24925	5383.1125
2002.30706	5361.9125
2005.36288	5337.0125
2008.41672	5321.5125
2011.46859	5324.8125
2014.51848	5288.7125
2017.56639	5275.0125
2020.61233	5266.7125
2023.6563	5241.5125
2026.6983	5241.0125
2029.73833	5205.0125
2032.7764	5196.6125
2035.8125	5172.1125
2038.84664	5167.7125
2041.87881	5155.4125
2044.90903	5147.5125
2047.93729	5123.1125
2050.96359	5140.5125
2053.98794	5122.7125
2057.01034	5109.2125
2060.03078	5108.4125
2063.04927	5096.8125
2066.06582	5105.3125
2069.08042	5088.0125
2072.09307	5073.2125
2075.10378	5067.3125
2078.11255	5068.7125
2081.11938	5062.5125
2084.12426	5034.7125
2087.12722	5039.3125
2090.12824	5041.0125
2093.12732	5043.7125
2096.12447	5060.8125
2099.11969	5068.4125
2102.11299	5053.9125
2105.10435	5059.5125
2108.09379	5053.0125
2111.08131	5053.9125
2114.0669	5069.1125
2117.05057	5051.7125
2120.03233	5071.3125
2123.01216	5065.5125
2125.99008	5060.2125
2128.96609	5064.5125
2131.94018	5059.2125
2134.91236	5053.0125
2137.88263	5063.1125
2140.851	5060.9125
2143.81746	5053.6125
2146.78201	5048.7125
2149.74466	5051.0125
2152.7054	5051.6125
2155.66425	5039.8125
2158.6212	5039.8125
2161.57625	5036.3125
2164.52941	5037.3125
2167.48067	5009.1125
2170.43004	5001.8125
2173.37752	4991.4125
2176.32311	5000.2125
2179.26681	5003.2125
2182.20863	5019.3125
2185.14856	5024.2125
2188.08661	4998.1125
2191.02278	5006.3125
2193.95707	5006.4125
2196.88948	5000.5125
2199.82001	4982.4125
2202.74867	4984.7125
2205.67545	4980.5125
2208.60037	4972.6125
2211.52341	4935.9125
2214.44458	4934.7125
2217.36388	4933.0125
2220.28132	4903.9125
2223.1969	4890.3125
2226.11061	4881.7125
2229.02246	4871.3125
2231.93245	4845.6125
2234.84058	4858.1125
2237.74686	4854.6125
2240.65128	4844.0125
2243.55385	4834.4125
2246.45456	4821.6125
2249.35343	4819.8125
2252.25044	4808.5125
2255.14561	4798.7125
2258.03893	4806.5125
2260.93041	4788.6125
2263.82004	4803.0125
2266.70783	4770.3125
2269.59378	4764.5125
2272.4779	4742.0125
2275.36017	4736.2125
2278.24061	4724.2125
2281.11922	4706.2125
2283.996	4696.0125
2286.87094	4694.8125
2289.74405	4673.7125
2292.61534	4676.7125
2295.4848	4671.4125
2298.35243	4660.0125
2301.21824	4634.8125
2304.08223	4638.7125
2306.94439	4626.0125
2309.80474	4624.2125
2312.66327	4634.5125
2315.51999	4617.6125
2318.37489	4609.7125
2321.22797	4605.2125
2324.07925	4569.1125
2326.92871	4587.6125
2329.77637	4563.5125
2332.62222	4567.6125
2335.46626	4547.7125
2338.3085	4541.4125
2341.14893	4544.0125
2343.98756	4541.6125
2346.8244	4544.0125
2349.65943	4540.9125
2352.49267	4502.9125
2355.32411	4507.9125
2358.15376	4519.0125
2360.98161	4512.5125
2363.80768	4511.1125
2366.63195	4507.0125
2369.45444	4501.0125
2372.27514	4515.5125
2375.09405	4507.6125
2377.91118	4482.7125
2380.72652	4479.3125
2383.54009	4463.3125
2386.35187	4461.7125
2389.16188	4447.4125
2391.97011	4414.0125
2394.77657	4412.0125
2397.58125	4395.0125
2400.38416	4405.8125
2403.18529	4385.6125
2405.98466	4392.4125
2408.78226	4368.9125
2411.57809	4369.8125
2414.37216	4335.6125
2417.16446	4340.7125
2419.955	4348.3125
2422.74378	4341.4125
2425.5308	4341.6125
2428.31606	4344.0125
2431.09956	4336.9125
2433.88131	4326.1125
2436.6613	4323.7125
2439.43954	4307.9125
2442.21603	4299.6125
2444.99077	4309.2125
2447.76377	4310.0125
2450.53501	4301.5125
2453.30451	4306.1125
2456.07226	4290.0125
2458.83827	4287.1125
2461.60254	4274.5125
2464.36507	4264.4125
2467.12586	4254.9125
2469.88492	4251.5125
2472.64224	4256.0125
2475.39782	4247.7125
2478.15167	4253.4125
2480.90379	4234.3125
2483.65417	4232.1125
2486.40283	4239.0125
2489.14976	4233.1125
2491.89497	4235.8125
2494.63845	4239.5125
2497.3802	4228.8125
2500.12024	4215.0125
2502.85855	4204.4125
2505.59514	4205.3125
2508.33002	4178.3125
2511.06318	4182.3125
2513.79462	4169.7125
2516.52435	4150.0125
2519.25237	4142.0125
2521.97867	4134.8125
2524.70327	4143.9125
2527.42616	4121.7125
2530.14734	4113.8125
2532.86681	4126.1125
2535.58458	4104.0125
2538.30065	4104.0125
2541.01501	4108.4125
2543.72768	4083.6125
2546.43864	4087.0125
2549.14791	4078.6125
2551.85548	4082.4125
2554.56136	4075.8125
2557.26554	4050.3125
2559.96803	4044.7125
2562.66883	4035.8125
2565.36794	4035.1125
2568.06536	4019.0125
2570.7611	4006.3125
2573.45514	3997.8125
2576.14751	3999.3125
2578.83819	3976.6125
2581.52719	3979.4125
2584.21451	3968.5125
2586.90015	3964.8125
2589.58411	3945.3125
2592.2664	3938.1125
2594.94701	3925.8125
2597.62594	3933.4125
2600.30321	3904.4125
2602.9788	3914.0125
2605.65273	3909.9125
2608.32498	3922.6125
2610.99557	3890.2125
2613.66449	3895.9125
2616.33175	3888.7125
2618.99734	3886.6125
2621.66128	3863.4125
2624.32355	3851.5125
2626.98416	3848.5125
2629.64311	3833.2125
2632.30041	3826.9125
2634.95605	3818.0125
2637.61004	3815.1125
2640.26238	3794.1125
2642.91306	3805.2125
2645.56209	3802.9125
2648.20948	3802.4125
2650.85521	3783.4125
2653.4993	3778.3125
2656.14175	3782.7125
2658.78255	3781.3125
2661.42171	3779.2125
2664.05923	3797.7125
2666.6951	3791.0125
2669.32934	3791.7125
2671.96194	3781.6125
2674.59291	3803.2125
2677.22224	3788.0125
2679.84993	3789.1125
2682.476	3788.4125
2685.10043	3774.2125
2687.72324	3793.9125
2690.34441	3779.8125
2692.96396	3778.8125
2695.58188	3773.7125
2698.19818	3764.2125
2700.81285	3765.5125
2703.4259	3779.7125
2706.03733	3753.0125
2708.64714	3745.6125
2711.25533	3762.8125
2713.86191	3752.5125
2716.46687	3748.9125
2719.07021	3759.1125
2721.67194	3747.5125
2724.27206	3743.3125
2726.87057	3740.1125
2729.46747	3742.1125
2732.06276	3747.7125
2734.65644	3729.4125
2737.24852	3735.9125
2739.83899	3707.4125
2742.42786	3711.2125
2745.01513	3703.4125
2747.60079	3694.3125
2750.18486	3676.7125
2752.76733	3698.4125
2755.3482	3677.3125
2757.92747	3658.3125
2760.50515	3661.4125
2763.08123	3650.2125
2765.65573	3645.5125
2768.22863	3640.6125
2770.79994	3637.6125
2773.36967	3621.8125
2775.9378	3623.8125
2778.50435	3607.7125
2781.06932	3603.8125
2783.6327	3602.3125
2786.1945	3601.7125
2788.75471	3596.7125
2791.31335	3596.5125
2793.87041	3573.1125
2796.42589	3562.7125
2798.97979	3556.0125
2801.53212	3561.2125
2804.08288	3543.0125
2806.63206	3518.8125
2809.17967	3539.9125
2811.72571	3527.8125
2814.27018	3505.5125
2816.81308	3521.8125
2819.35442	3505.4125
2821.89419	3510.4125
2824.43239	3502.4125
2826.96904	3494.2125
2829.50412	3482.1125
2832.03763	3479.9125
2834.56959	3465.7125
2837.1	3456.5125
2839.62884	3447.5125
2842.15613	3439.4125
2844.68186	3451.8125
2847.20604	3454.2125
2849.72867	3442.0125
2852.24974	3427.7125
2854.76927	3417.8125
2857.28724	3409.2125
2859.80367	3412.4125
2862.31855	3399.4125
2864.83189	3411.6125
2867.34368	3394.4125
2869.85393	3406.2125
2872.36264	3395.6125
2874.8698	3398.4125
2877.37543	3387.6125
2879.87952	3377.5125
2882.38207	3379.5125
2884.88308	3354.4125
2887.38256	3363.7125
2889.88051	3347.5125
2892.37692	3361.3125
2894.8718	3345.1125
2897.36515	3366.6125
2899.85698	3335.8125
2902.34727	3353.5125
2904.83604	3357.0125
2907.32328	3353.4125
2909.809	3358.1125
2912.29319	3358.9125
2914.77587	3363.5125
2917.25702	3383.9125
2919.73665	3368.8125
2922.21476	3373.4125
2924.69136	3357.5125
2927.16644	3359.3125
2929.64	3351.3125
2932.11205	3332.3125
2934.58258	3314.7125
2937.05161	3329.0125
2939.51912	3324.4125
2941.98513	3316.8125
2944.44962	3306.4125
2946.91261	3289.0125
2949.37409	3293.0125
2951.83407	3283.2125
2954.29254	3282.4125
2956.74951	3269.9125
2959.20498	3277.1125
2961.65895	3285.8125
2964.11142	3283.0125
2966.56239	3267.1125
2969.01186	3283.6125
2971.45984	3250.9125
2973.90632	3262.5125
2976.35131	3253.5125
2978.7948	3245.7125
2981.23681	3243.8125
2983.67732	3245.4125
2986.11635	3239.9125
2988.55388	3222.7125
2990.98993	3218.4125
2993.4245	3205.4125
2995.85758	3189.7125
2998.28917	3198.5125
3000.71928	3175.9125
3003.14791	3164.1125
3005.57506	3167.7125
3008.00073	3158.6125
3010.42493	3142.9125
3012.84764	3141.7125
3015.26888	3147.9125
3017.68865	3134.2125
3020.10694	3125.1125
3022.52376	3112.3125
3024.9391	3098.9125
3027.35298	3091.3125
3029.76539	3077.7125
3032.17632	3075.5125
3034.5858	3064.4125
3036.9938	3060.2125
3039.40034	3043.2125
3041.80542	3041.8125
3044.20903	3031.5125
3046.61118	3032.1125
3049.01187	3034.7125
3051.4111	3015.7125
3053.80888	3007.3125
3056.20519	2993.5125
3058.60005	2986.5125
3060.99345	2990.3125
3063.3854	2980.2125
3065.7759	2970.4125
3068.16494	2968.6125
3070.55254	2948.2125
3072.93868	2935.8125
3075.32338	2947.3125
3077.70662	2934.7125
3080.08842	2912.9125
3082.46878	2916.1125
3084.84769	2899.8125
3087.22515	2893.9125
3089.60118	2905.4125
3091.97576	2894.8125
3094.3489	2884.1125
3096.72061	2895.3125
3099.09087	2880.6125
3101.4597	2884.3125
3103.82709	2888.7125
3106.19305	2883.7125
3108.55757	2883.1125
3110.92066	2863.7125
3113.28232	2851.4125
3115.64255	2851.9125
3118.00134	2840.1125
3120.35871	2842.2125
3122.71466	2828.7125
3125.06917	2823.4125
3127.42226	2819.3125
3129.77393	2817.0125
3132.12417	2801.8125
3134.47299	2798.8125
3136.82039	2802.4125
3139.16636	2806.5125
3141.51092	2797.4125
3143.85406	2810.2125
3146.19579	2782.9125
3148.53609	2786.4125
3150.87499	2788.1125
3153.21246	2778.8125
3155.54853	2778.4125
3157.88318	2788.8125
3160.21642	2787.3125
3162.54826	2777.2125
3164.87868	2780.7125
3167.2077	2769.4125
3169.5353	2749.4125
3171.86151	2757.3125
3174.18631	2747.6125
3176.5097	2732.8125
3178.83169	2736.6125
3181.15228	2722.7125
3183.47147	2728.0125
3185.78926	2719.9125
3188.10565	2696.7125
3190.42065	2690.1125
3192.73424	2690.0125
3195.04645	2695.5125
3197.35725	2692.8125
3199.66667	2679.2125
3201.97469	2672.9125
3204.28132	2677.6125
3206.58656	2690.3125
3208.8904	2686.0125
3211.19287	2691.8125
3213.49394	2682.9125
3215.79363	2692.2125
3218.09193	2673.1125
3220.38884	2677.9125
3222.68438	2678.6125
3224.97853	2670.3125
3227.2713	2665.3125
3229.56269	2674.2125
3231.8527	2663.5125
3234.14133	2648.7125
3236.42858	2633.0125
3238.71446	2630.9125
3240.99896	2630.6125
3243.28209	2618.4125
3245.56384	2612.7125
3247.84423	2606.3125
3250.12324	2604.2125
3252.40088	2596.6125
3254.67715	2587.9125
3256.95205	2596.5125
3259.22558	2587.4125
3261.49775	2592.2125
3263.76855	2579.3125
3266.03799	2592.9125
3268.30606	2579.5125
3270.57277	2590.0125
3272.83812	2576.1125
3275.10211	2558.5125
3277.36474	2545.0125
3279.62601	2550.5125
3281.88593	2548.3125
3284.14448	2545.9125
3286.40168	2534.2125
3288.65753	2539.7125
3290.91202	2532.9125
3293.16516	2528.7125
3295.41695	2525.7125
3297.66738	2516.8125
3299.91647	2512.2125
3302.16421	2494.8125
3304.4106	2471.6125
3306.65564	2449.9125
3308.89933	2432.7125
3311.14169	2410.3125
3313.38269	2387.5125
3315.62236	2373.2125
3317.86068	2365.9125
3320.09766	2348.3125
3322.3333	2314.3125
3324.5676	2310.2125
3326.80056	2265.1125
3329.03219	2253.5125
3331.26248	1.4125
3333.49143	-0.4875
3335.71905	-0.5875
