Data from AgNPs_FTO_APTES_UA_1uM_CRN_10uM_R6G_20uM_NaF_0.1M_Addition_RamanShift__32__15-35-09-710.txt Node

Date: Thu Jan 27 15:35:09 GMT 2022
User: TCL
Spectrometer: QEP01345
Trigger mode: 4
Integration Time (sec): 7.000000E0
Scans to average: 10
Electric dark correction enabled: true
Nonlinearity correction enabled: false
Boxcar width: 0
XAxis mode: Raman Shifts
Number of Pixels in Spectrum: 1044
>>>>>Begin Spectral Data<<<<<
46.04893	1.5125
50.45542	1.6125
54.85868	-2.0875
59.25871	-1.2875
63.6555	29.7125
68.04907	33.3125
72.43941	34.3125
76.82654	39.0125
81.21044	40.4125
85.59113	40.1125
89.96862	43.5125
94.34289	43.7125
98.71396	49.8125
103.08183	45.5125
107.4465	50.9125
111.80798	50.8125
116.16626	49.4125
120.52136	54.3125
124.87327	56.2125
129.222	49.9125
133.56755	50.8125
137.90993	49.6125
142.24913	58.3125
146.58517	60.8125
150.91804	67.9125
155.24774	75.1125
159.57429	88.6125
163.89768	105.4125
168.21792	137.4125
172.53501	175.7125
176.84895	235.4125
181.15975	317.7125
185.46741	444.1125
189.77193	601.6125
194.07331	811.1125
198.37157	1029.3125
202.6667	1270.5125
206.9587	1517.1125
211.24758	1746.5125
215.53334	2007.4125
219.81599	2287.0125
224.09553	2610.6125
228.37195	2956.5125
232.64527	3334.6125
236.91549	3704.1125
241.18261	4049.6125
245.44663	4314.4125
249.70755	4533.5125
253.96539	4729.8125
258.22014	4901.2125
262.4718	5038.3125
266.72039	5185.2125
270.96589	5278.7125
275.20832	5288.5125
279.44768	5251.0125
283.68397	5177.5125
287.91719	5150.0125
292.14735	5156.8125
296.37445	5259.9125
300.59849	5452.8125
304.81948	5696.6125
309.03742	5865.6125
313.25231	5868.3125
317.46415	5569.5125
321.67296	5131.5125
325.87872	4763.5125
330.08145	4563.3125
334.28114	4539.8125
338.47781	4597.2125
342.67145	4748.8125
346.86207	4951.0125
351.04966	5257.0125
355.23424	5602.5125
359.4158	5888.8125
363.59435	6016.1125
367.76989	6052.5125
371.94243	6035.9125
376.11196	5998.4125
380.27849	5937.8125
384.44203	5871.4125
388.60257	5772.7125
392.76012	5726.8125
396.91468	5771.2125
401.06626	5940.9125
405.21485	6046.6125
409.36047	5953.0125
413.50311	5619.2125
417.64277	5316.1125
421.77947	5121.7125
425.9132	5031.8125
430.04396	5010.9125
434.17176	5049.6125
438.2966	5112.9125
442.41849	5223.1125
446.53742	5389.2125
450.6534	5533.6125
454.76644	5621.7125
458.87653	5635.3125
462.98368	5603.7125
467.08789	5533.3125
471.18916	5410.5125
475.2875	5273.5125
479.38291	5204.9125
483.4754	5088.2125
487.56496	5034.6125
491.6516	4974.9125
495.73531	4958.3125
499.81612	4959.7125
503.89401	5023.6125
507.96899	5096.4125
512.04106	5166.2125
516.11023	5236.0125
520.1765	5303.3125
524.23987	5275.0125
528.30034	5164.3125
532.35792	5050.8125
536.41261	4914.2125
540.46441	4792.6125
544.51333	4736.2125
548.55936	4787.9125
552.60252	4902.9125
556.64279	5057.2125
560.6802	5143.9125
564.71473	5198.7125
568.7464	5431.1125
572.7752	5599.8125
576.80114	5462.4125
580.82422	5248.0125
584.84444	5177.8125
588.86181	5140.9125
592.87633	5141.4125
596.888	5177.9125
600.89682	5361.9125
604.9028	5986.6125
608.90594	7641.0125
612.90624	9951.8125
616.90371	9726.5125
620.89834	6734.8125
624.89015	5249.1125
628.87913	4938.5125
632.86528	4964.0125
636.84862	5067.0125
640.82913	5014.6125
644.80683	4813.0125
648.78172	4638.8125
652.75379	4647.8125
656.72306	4872.2125
660.68952	5123.0125
664.65319	5086.5125
668.61405	4820.3125
672.57211	4669.6125
676.52738	4652.7125
680.47986	4653.0125
684.42955	4619.0125
688.37646	4604.3125
692.32058	4603.4125
696.26192	4641.8125
700.20048	4702.1125
704.13626	4738.4125
708.06928	4730.9125
711.99952	4693.7125
715.927	4687.0125
719.85171	4711.7125
723.77365	4709.3125
727.69284	4646.9125
731.60928	4612.0125
735.52295	4604.4125
739.43388	4604.0125
743.34206	4638.1125
747.24749	4641.5125
751.15017	4674.9125
755.05012	4793.5125
758.94733	5041.4125
762.8418	5580.9125
766.73354	6549.0125
770.62254	7626.2125
774.50882	8155.5125
778.39237	7807.0125
782.27321	6758.0125
786.15132	5681.8125
790.02671	5073.1125
793.89938	4807.5125
797.76935	4683.8125
801.6366	4624.5125
805.50115	4604.8125
809.36299	4574.8125
813.22213	4555.4125
817.07857	4550.1125
820.93231	4544.3125
824.78336	4547.1125
828.63172	4573.7125
832.47738	4581.8125
836.32036	4562.1125
840.16066	4537.7125
843.99827	4506.7125
847.8332	4490.5125
851.66546	4493.0125
855.49504	4465.4125
859.32195	4471.5125
863.1462	4451.8125
866.96777	4434.5125
870.78668	4427.7125
874.60293	4435.1125
878.41652	4447.5125
882.22745	4469.1125
886.03573	4483.7125
889.84136	4480.8125
893.64433	4456.1125
897.44466	4431.4125
901.24235	4435.1125
905.0374	4422.3125
908.8298	4408.2125
912.61957	4399.1125
916.40671	4418.1125
920.19121	4465.7125
923.97308	4502.3125
927.75233	4559.2125
931.52895	4586.9125
935.30295	4543.6125
939.07433	4407.2125
942.84309	4283.6125
946.60924	4211.9125
950.37278	4188.8125
954.13371	4169.5125
957.89203	4143.3125
961.64774	4128.0125
965.40086	4112.3125
969.15137	4117.7125
972.89929	4095.1125
976.64461	4074.4125
980.38733	4065.5125
984.12747	4079.3125
987.86502	4105.8125
991.59999	4113.0125
995.33237	4138.2125
999.06217	4218.8125
1002.78939	4318.2125
1006.51404	4410.0125
1010.23611	4511.7125
1013.95561	4588.6125
1017.67255	4556.5125
1021.38692	4485.2125
1025.09872	4414.8125
1028.80796	4365.5125
1032.51465	4377.0125
1036.21877	4385.4125
1039.92035	4446.3125
1043.61937	4471.8125
1047.31584	4461.1125
1051.00976	4475.1125
1054.70114	4448.4125
1058.38998	4463.0125
1062.07627	4483.1125
1065.76003	4507.2125
1069.44126	4554.9125
1073.11995	4578.1125
1076.79611	4643.6125
1080.46974	4718.2125
1084.14085	4840.2125
1087.80943	4980.7125
1091.47549	5048.8125
1095.13903	4967.8125
1098.80005	4789.7125
1102.45857	4632.8125
1106.11456	4557.7125
1109.76805	4563.7125
1113.41903	4649.9125
1117.06751	4798.2125
1120.71348	5002.3125
1124.35696	5205.1125
1127.99793	5423.7125
1131.63641	5467.2125
1135.2724	5188.7125
1138.90589	4926.0125
1142.5369	4765.7125
1146.16542	4673.3125
1149.79145	4619.6125
1153.415	4612.9125
1157.03607	4682.4125
1160.65467	4772.0125
1164.27079	4943.5125
1167.88443	5217.4125
1171.49561	5652.1125
1175.10432	6379.3125
1178.71056	7341.6125
1182.31434	8060.0125
1185.91565	8194.1125
1189.51451	7925.4125
1193.11091	7392.3125
1196.70485	6774.4125
1200.29634	6317.5125
1203.88538	6010.9125
1207.47197	5648.4125
1211.05612	5333.8125
1214.63782	5155.1125
1218.21708	5096.6125
1221.79391	5079.8125
1225.36829	5108.9125
1228.94024	5141.5125
1232.50976	5161.4125
1236.07685	5175.7125
1239.6415	5170.4125
1243.20374	5172.1125
1246.76355	5189.4125
1250.32093	5243.3125
1253.8759	5359.3125
1257.42845	5476.0125
1260.97859	5662.9125
1264.52631	5828.7125
1268.07163	6008.5125
1271.61453	6175.0125
1275.15503	6310.2125
1278.69312	6355.0125
1282.22882	6385.1125
1285.76211	6498.4125
1289.29301	6726.6125
1292.82151	6971.2125
1296.34761	7193.8125
1299.87133	7535.1125
1303.39266	8110.6125
1306.9116	9030.0125
1310.42815	10109.8125
1313.94233	10841.4125
1317.45412	10751.3125
1320.96354	10070.3125
1324.47058	9283.9125
1327.97525	8582.5125
1331.47754	8123.9125
1334.97747	7914.6125
1338.47502	7924.4125
1341.97022	8018.9125
1345.46305	8249.9125
1348.95352	8637.6125
1352.44163	9238.5125
1355.92738	10142.1125
1359.41078	11610.1125
1362.89183	13244.6125
1366.37053	13183.8125
1369.84688	11207.2125
1373.32088	9081.4125
1376.79254	7726.8125
1380.26186	7084.0125
1383.72883	6772.8125
1387.19347	6562.9125
1390.65578	6323.7125
1394.11575	6108.6125
1397.57339	5996.0125
1401.0287	6025.5125
1404.48168	6108.8125
1407.93234	6214.1125
1411.38068	6257.6125
1414.82669	6233.0125
1418.27039	6099.1125
1421.71177	5954.5125
1425.15083	5795.8125
1428.58758	5704.4125
1432.02203	5661.9125
1435.45416	5737.9125
1438.88399	5783.4125
1442.31151	5814.8125
1445.73673	5850.9125
1449.15965	5896.6125
1452.58027	5898.6125
1455.9986	5892.1125
1459.41463	5842.5125
1462.82837	5892.8125
1466.23982	6008.7125
1469.64898	6124.3125
1473.05586	6254.1125
1476.46045	6312.0125
1479.86276	6416.4125
1483.26279	6544.1125
1486.66054	6685.8125
1490.05602	6896.4125
1493.44922	7190.8125
1496.84016	7653.3125
1500.22882	8378.9125
1503.61521	9385.0125
1506.99934	10581.7125
1510.38121	11784.9125
1513.76081	12539.6125
1517.13816	12090.5125
1520.51324	10657.3125
1523.88607	9116.6125
1527.25665	7993.3125
1530.62498	7341.1125
1533.99105	6989.3125
1537.35488	6723.4125
1540.71647	6559.0125
1544.07581	6439.5125
1547.4329	6418.0125
1550.78776	6347.7125
1554.14038	6340.6125
1557.49077	6409.0125
1560.83892	6524.0125
1564.18484	6725.6125
1567.52853	6946.6125
1570.86999	7125.5125
1574.20922	7293.6125
1577.54624	7264.6125
1580.88103	6962.8125
1584.2136	6466.8125
1587.54395	6236.9125
1590.87208	6256.5125
1594.19801	6571.6125
1597.52172	7035.5125
1600.84321	7231.6125
1604.16251	6992.1125
1607.47959	6506.0125
1610.79447	6020.9125
1614.10715	5556.3125
1617.41763	5183.4125
1620.7259	4928.2125
1624.03199	4800.9125
1627.33587	4778.1125
1630.63757	4884.0125
1633.93707	5121.1125
1637.23439	5474.5125
1640.52951	6049.7125
1643.82246	6802.3125
1647.11321	7717.6125
1650.40179	8471.0125
1653.68819	8401.2125
1656.97241	7385.7125
1660.25446	6075.9125
1663.53433	5113.9125
1666.81203	4533.5125
1670.08756	4214.8125
1673.36092	4029.6125
1676.63211	3923.3125
1679.90115	3837.3125
1683.16801	3797.0125
1686.43272	3726.3125
1689.69527	3705.0125
1692.95567	3647.7125
1696.2139	3602.5125
1699.46999	3560.8125
1702.72392	3526.9125
1705.97571	3557.4125
1709.22535	3587.6125
1712.47284	3617.8125
1715.71819	3624.9125
1718.96139	3627.5125
1722.20246	3640.3125
1725.44139	3619.1125
1728.67818	3579.6125
1731.91284	3566.6125
1735.14537	3531.1125
1738.37576	3513.7125
1741.60403	3497.0125
1744.83017	3468.5125
1748.05418	3453.3125
1751.27607	3434.7125
1754.49584	3407.0125
1757.71349	3392.3125
1760.92903	3372.6125
1764.14244	3366.7125
1767.35375	3354.3125
1770.56294	3344.1125
1773.77002	3338.2125
1776.97499	3347.2125
1780.17785	3359.4125
1783.37861	3372.5125
1786.57727	3365.3125
1789.77382	3356.7125
1792.96828	3353.2125
1796.16064	3359.2125
1799.3509	3346.4125
1802.53907	3339.1125
1805.72514	3328.9125
1808.90913	3317.8125
1812.09102	3297.8125
1815.27083	3307.6125
1818.44856	3289.0125
1821.6242	3295.2125
1824.79776	3270.8125
1827.96924	3265.2125
1831.13864	3258.4125
1834.30597	3269.7125
1837.47122	3254.4125
1840.6344	3251.5125
1843.7955	3256.3125
1846.95454	3251.8125
1850.11151	3242.3125
1853.26642	3254.4125
1856.41926	3251.0125
1859.57004	3272.2125
1862.71876	3250.3125
1865.86542	3243.7125
1869.01003	3250.9125
1872.15258	3267.2125
1875.29308	3247.3125
1878.43152	3248.6125
1881.56792	3261.1125
1884.70227	3240.8125
1887.83457	3245.9125
1890.96482	3253.4125
1894.09304	3256.8125
1897.21921	3245.2125
1900.34335	3240.1125
1903.46544	3237.6125
1906.58551	3251.3125
1909.70353	3243.6125
1912.81953	3242.3125
1915.93349	3236.5125
1919.04543	3228.4125
1922.15534	3216.9125
1925.26322	3215.9125
1928.36908	3207.8125
1931.47292	3183.0125
1934.57473	3166.6125
1937.67453	3162.7125
1940.77232	3142.6125
1943.86808	3128.2125
1946.96184	3106.2125
1950.05358	3113.0125
1953.14331	3090.7125
1956.23103	3079.4125
1959.31675	3061.2125
1962.40046	3050.9125
1965.48217	3048.1125
1968.56188	3037.6125
1971.63959	3026.5125
1974.7153	3030.1125
1977.78901	3010.1125
1980.86073	3006.5125
1983.93046	2983.7125
1986.99819	2976.8125
1990.06394	2956.1125
1993.1277	2950.1125
1996.18947	2946.1125
1999.24925	2929.9125
2002.30706	2912.5125
2005.36288	2927.1125
2008.41672	2905.0125
2011.46859	2883.0125
2014.51848	2899.4125
2017.56639	2893.7125
2020.61233	2876.3125
2023.6563	2862.8125
2026.6983	2856.9125
2029.73833	2839.9125
2032.7764	2825.7125
2035.8125	2831.1125
2038.84664	2821.5125
2041.87881	2819.7125
2044.90903	2807.4125
2047.93729	2809.6125
2050.96359	2810.5125
2053.98794	2783.7125
2057.01034	2785.4125
2060.03078	2787.8125
2063.04927	2789.3125
2066.06582	2782.9125
2069.08042	2778.0125
2072.09307	2768.0125
2075.10378	2771.7125
2078.11255	2768.3125
2081.11938	2772.7125
2084.12426	2770.5125
2087.12722	2761.2125
2090.12824	2769.7125
2093.12732	2768.2125
2096.12447	2762.3125
2099.11969	2756.9125
2102.11299	2759.2125
2105.10435	2769.1125
2108.09379	2773.5125
2111.08131	2763.7125
2114.0669	2771.9125
2117.05057	2762.8125
2120.03233	2766.3125
2123.01216	2761.9125
2125.99008	2774.6125
2128.96609	2770.0125
2131.94018	2772.1125
2134.91236	2777.1125
2137.88263	2772.7125
2140.851	2775.3125
2143.81746	2765.6125
2146.78201	2775.0125
2149.74466	2757.0125
2152.7054	2770.9125
2155.66425	2759.7125
2158.6212	2765.5125
2161.57625	2745.2125
2164.52941	2751.4125
2167.48067	2758.0125
2170.43004	2749.1125
2173.37752	2746.4125
2176.32311	2747.9125
2179.26681	2753.6125
2182.20863	2746.2125
2185.14856	2738.3125
2188.08661	2740.7125
2191.02278	2748.7125
2193.95707	2734.4125
2196.88948	2734.6125
2199.82001	2716.4125
2202.74867	2720.5125
2205.67545	2715.8125
2208.60037	2724.5125
2211.52341	2716.9125
2214.44458	2716.5125
2217.36388	2695.5125
2220.28132	2690.1125
2223.1969	2691.6125
2226.11061	2683.8125
2229.02246	2683.1125
2231.93245	2674.3125
2234.84058	2666.8125
2237.74686	2650.2125
2240.65128	2658.5125
2243.55385	2656.4125
2246.45456	2652.4125
2249.35343	2654.4125
2252.25044	2644.8125
2255.14561	2638.3125
2258.03893	2631.1125
2260.93041	2629.4125
2263.82004	2625.7125
2266.70783	2624.2125
2269.59378	2614.4125
2272.4779	2608.9125
2275.36017	2597.8125
2278.24061	2599.8125
2281.11922	2591.2125
2283.996	2588.6125
2286.87094	2592.4125
2289.74405	2577.4125
2292.61534	2562.8125
2295.4848	2551.9125
2298.35243	2561.3125
2301.21824	2560.5125
2304.08223	2570.4125
2306.94439	2558.1125
2309.80474	2546.3125
2312.66327	2552.3125
2315.51999	2551.2125
2318.37489	2547.1125
2321.22797	2540.9125
2324.07925	2540.2125
2326.92871	2538.2125
2329.77637	2530.7125
2332.62222	2524.9125
2335.46626	2515.9125
2338.3085	2523.6125
2341.14893	2512.3125
2343.98756	2502.1125
2346.8244	2504.9125
2349.65943	2507.2125
2352.49267	2511.8125
2355.32411	2510.7125
2358.15376	2517.0125
2360.98161	2527.4125
2363.80768	2537.9125
2366.63195	2531.1125
2369.45444	2533.2125
2372.27514	2536.2125
2375.09405	2521.3125
2377.91118	2522.5125
2380.72652	2505.3125
2383.54009	2480.5125
2386.35187	2487.2125
2389.16188	2465.7125
2391.97011	2469.2125
2394.77657	2448.2125
2397.58125	2436.8125
2400.38416	2440.2125
2403.18529	2431.8125
2405.98466	2435.5125
2408.78226	2418.5125
2411.57809	2421.3125
2414.37216	2429.8125
2417.16446	2416.0125
2419.955	2406.5125
2422.74378	2416.5125
2425.5308	2406.2125
2428.31606	2408.6125
2431.09956	2400.3125
2433.88131	2403.4125
2436.6613	2407.5125
2439.43954	2415.7125
2442.21603	2400.1125
2444.99077	2409.0125
2447.76377	2414.2125
2450.53501	2402.3125
2453.30451	2407.0125
2456.07226	2397.6125
2458.83827	2398.5125
2461.60254	2398.7125
2464.36507	2400.4125
2467.12586	2386.5125
2469.88492	2381.4125
2472.64224	2393.9125
2475.39782	2383.9125
2478.15167	2387.3125
2480.90379	2383.4125
2483.65417	2397.6125
2486.40283	2400.4125
2489.14976	2403.5125
2491.89497	2416.4125
2494.63845	2395.6125
2497.3802	2396.1125
2500.12024	2391.0125
2502.85855	2389.0125
2505.59514	2390.9125
2508.33002	2381.1125
2511.06318	2378.8125
2513.79462	2367.3125
2516.52435	2361.5125
2519.25237	2346.7125
2521.97867	2338.8125
2524.70327	2329.7125
2527.42616	2323.8125
2530.14734	2320.6125
2532.86681	2315.0125
2535.58458	2326.2125
2538.30065	2321.4125
2541.01501	2321.2125
2543.72768	2318.7125
2546.43864	2312.6125
2549.14791	2312.1125
2551.85548	2308.3125
2554.56136	2310.7125
2557.26554	2297.7125
2559.96803	2293.4125
2562.66883	2302.8125
2565.36794	2289.0125
2568.06536	2282.5125
2570.7611	2291.9125
2573.45514	2288.2125
2576.14751	2282.0125
2578.83819	2276.6125
2581.52719	2267.8125
2584.21451	2273.1125
2586.90015	2267.6125
2589.58411	2252.2125
2592.2664	2253.6125
2594.94701	2249.9125
2597.62594	2256.6125
2600.30321	2240.8125
2602.9788	2245.6125
2605.65273	2234.6125
2608.32498	2245.0125
2610.99557	2234.1125
2613.66449	2246.4125
2616.33175	2242.0125
2618.99734	2242.8125
2621.66128	2240.6125
2624.32355	2236.1125
2626.98416	2232.3125
2629.64311	2220.2125
2632.30041	2226.1125
2634.95605	2211.7125
2637.61004	2215.2125
2640.26238	2215.3125
2642.91306	2212.3125
2645.56209	2214.3125
2648.20948	2202.5125
2650.85521	2207.2125
2653.4993	2208.3125
2656.14175	2200.8125
2658.78255	2212.7125
2661.42171	2212.0125
2664.05923	2207.2125
2666.6951	2215.7125
2669.32934	2211.4125
2671.96194	2211.0125
2674.59291	2222.9125
2677.22224	2214.1125
2679.84993	2214.0125
2682.476	2215.0125
2685.10043	2217.1125
2687.72324	2214.9125
2690.34441	2211.2125
2692.96396	2213.6125
2695.58188	2225.6125
2698.19818	2211.1125
2700.81285	2219.0125
2703.4259	2216.4125
2706.03733	2192.3125
2708.64714	2185.9125
2711.25533	2212.1125
2713.86191	2201.0125
2716.46687	2215.3125
2719.07021	2221.1125
2721.67194	2222.4125
2724.27206	2224.1125
2726.87057	2227.5125
2729.46747	2217.1125
2732.06276	2228.0125
2734.65644	2225.6125
2737.24852	2213.1125
2739.83899	2212.8125
2742.42786	2213.3125
2745.01513	2206.0125
2747.60079	2200.0125
2750.18486	2200.7125
2752.76733	2195.4125
2755.3482	2184.2125
2757.92747	2196.5125
2760.50515	2182.0125
2763.08123	2185.1125
2765.65573	2185.5125
2768.22863	2180.3125
2770.79994	2174.8125
2773.36967	2163.5125
2775.9378	2176.2125
2778.50435	2178.4125
2781.06932	2170.5125
2783.6327	2172.4125
2786.1945	2160.0125
2788.75471	2162.3125
2791.31335	2168.8125
2793.87041	2157.7125
2796.42589	2161.5125
2798.97979	2170.4125
2801.53212	2148.2125
2804.08288	2152.7125
2806.63206	2153.3125
2809.17967	2149.7125
2811.72571	2155.7125
2814.27018	2150.9125
2816.81308	2138.8125
2819.35442	2160.4125
2821.89419	2156.4125
2824.43239	2157.9125
2826.96904	2166.6125
2829.50412	2165.8125
2832.03763	2153.5125
2834.56959	2156.4125
2837.1	2166.8125
2839.62884	2175.8125
2842.15613	2180.6125
2844.68186	2207.9125
2847.20604	2224.4125
2849.72867	2249.0125
2852.24974	2247.9125
2854.76927	2244.3125
2857.28724	2230.1125
2859.80367	2232.3125
2862.31855	2228.8125
2864.83189	2227.0125
2867.34368	2220.8125
2869.85393	2225.9125
2872.36264	2223.5125
2874.8698	2218.8125
2877.37543	2215.0125
2879.87952	2215.3125
2882.38207	2207.5125
2884.88308	2214.6125
2887.38256	2211.3125
2889.88051	2205.4125
2892.37692	2206.4125
2894.8718	2204.5125
2897.36515	2204.1125
2899.85698	2208.3125
2902.34727	2215.6125
2904.83604	2217.0125
2907.32328	2217.0125
2909.809	2216.3125
2912.29319	2214.9125
2914.77587	2207.3125
2917.25702	2221.8125
2919.73665	2213.3125
2922.21476	2212.8125
2924.69136	2221.2125
2927.16644	2216.7125
2929.64	2214.2125
2932.11205	2208.6125
2934.58258	2190.7125
2937.05161	2189.0125
2939.51912	2191.3125
2941.98513	2181.6125
2944.44962	2149.6125
2946.91261	2126.2125
2949.37409	2138.1125
2951.83407	2123.2125
2954.29254	2125.5125
2956.74951	2103.4125
2959.20498	2113.2125
2961.65895	2098.8125
2964.11142	2103.8125
2966.56239	2088.6125
2969.01186	2090.7125
2971.45984	2087.3125
2973.90632	2078.7125
2976.35131	2086.5125
2978.7948	2075.7125
2981.23681	2072.9125
2983.67732	2072.5125
2986.11635	2060.8125
2988.55388	2060.6125
2990.98993	2046.7125
2993.4245	2035.2125
2995.85758	2033.5125
2998.28917	2029.1125
3000.71928	2020.0125
3003.14791	2028.4125
3005.57506	2021.6125
3008.00073	2019.0125
3010.42493	2026.8125
3012.84764	2025.1125
3015.26888	2017.5125
3017.68865	2015.5125
3020.10694	2018.0125
3022.52376	2000.4125
3024.9391	1998.0125
3027.35298	2003.9125
3029.76539	2002.8125
3032.17632	2002.6125
3034.5858	1995.5125
3036.9938	1991.0125
3039.40034	2002.0125
3041.80542	2002.1125
3044.20903	1989.7125
3046.61118	1984.3125
3049.01187	1988.8125
3051.4111	1990.8125
3053.80888	1993.8125
3056.20519	1986.1125
3058.60005	1984.4125
3060.99345	1979.8125
3063.3854	1973.3125
3065.7759	1971.7125
3068.16494	1968.5125
3070.55254	1962.8125
3072.93868	1965.4125
3075.32338	1968.2125
3077.70662	1966.7125
3080.08842	1959.0125
3082.46878	1957.2125
3084.84769	1959.9125
3087.22515	1953.9125
3089.60118	1948.4125
3091.97576	1951.4125
3094.3489	1954.0125
3096.72061	1965.5125
3099.09087	1956.5125
3101.4597	1958.6125
3103.82709	1949.9125
3106.19305	1962.5125
3108.55757	1962.2125
3110.92066	1958.4125
3113.28232	1951.6125
3115.64255	1941.7125
3118.00134	1970.6125
3120.35871	1953.2125
3122.71466	1957.5125
3125.06917	1958.2125
3127.42226	1960.3125
3129.77393	1969.9125
3132.12417	1956.6125
3134.47299	1967.6125
3136.82039	1968.6125
3139.16636	1973.9125
3141.51092	1982.4125
3143.85406	1972.4125
3146.19579	1984.5125
3148.53609	1988.8125
3150.87499	2000.3125
3153.21246	2010.5125
3155.54853	2015.6125
3157.88318	2013.2125
3160.21642	2015.9125
3162.54826	2021.5125
3164.87868	2009.8125
3167.2077	2021.4125
3169.5353	2013.9125
3171.86151	2026.4125
3174.18631	2033.8125
3176.5097	2024.2125
3178.83169	2035.9125
3181.15228	2036.3125
3183.47147	2040.9125
3185.78926	2046.2125
3188.10565	2048.5125
3190.42065	2045.4125
3192.73424	2042.8125
3195.04645	2060.1125
3197.35725	2051.2125
3199.66667	2066.0125
3201.97469	2061.2125
3204.28132	2061.4125
3206.58656	2068.1125
3208.8904	2069.4125
3211.19287	2075.7125
3213.49394	2077.6125
3215.79363	2091.3125
3218.09193	2096.5125
3220.38884	2090.4125
3222.68438	2087.4125
3224.97853	2088.0125
3227.2713	2091.6125
3229.56269	2081.1125
3231.8527	2092.3125
3234.14133	2086.4125
3236.42858	2090.0125
3238.71446	2079.6125
3240.99896	2081.1125
3243.28209	2088.1125
3245.56384	2076.9125
3247.84423	2081.5125
3250.12324	2080.2125
3252.40088	2071.5125
3254.67715	2080.4125
3256.95205	2070.7125
3259.22558	2082.5125
3261.49775	2072.1125
3263.76855	2064.7125
3266.03799	2061.1125
3268.30606	2073.0125
3270.57277	2065.0125
3272.83812	2052.9125
3275.10211	2056.5125
3277.36474	2053.5125
3279.62601	2051.6125
3281.88593	2053.5125
3284.14448	2046.3125
3286.40168	2047.7125
3288.65753	2050.4125
3290.91202	2045.4125
3293.16516	2048.6125
3295.41695	2052.0125
3297.66738	2029.0125
3299.91647	2016.1125
3302.16421	2016.8125
3304.4106	2004.5125
3306.65564	1999.8125
3308.89933	1977.5125
3311.14169	1966.0125
3313.38269	1951.5125
3315.62236	1935.4125
3317.86068	1926.7125
3320.09766	1910.6125
3322.3333	1896.7125
3324.5676	1883.1125
3326.80056	1841.2125
3329.03219	1846.5125
3331.26248	0.8125
3333.49143	0.8125
3335.71905	-1.1875
