Data from AgNPs_FTO_APTES_UA_1uM_CRN_2uM_R6G_10uM_NaF_0.1M_Addition_RamanShift__8__13-04-39-538.txt Node

Date: Thu Jan 27 13:04:39 GMT 2022
User: TCL
Spectrometer: QEP01345
Trigger mode: 4
Integration Time (sec): 7.000000E0
Scans to average: 10
Electric dark correction enabled: true
Nonlinearity correction enabled: false
Boxcar width: 0
XAxis mode: Raman Shifts
Number of Pixels in Spectrum: 1044
>>>>>Begin Spectral Data<<<<<
46.04893	-0.175
50.45542	1.225
54.85868	-1.475
59.25871	-0.475
63.6555	57.325
68.04907	63.225
72.43941	66.225
76.82654	68.525
81.21044	71.825
85.59113	71.325
89.96862	73.725
94.34289	77.625
98.71396	80.125
103.08183	81.825
107.4465	86.025
111.80798	85.225
116.16626	90.425
120.52136	97.225
124.87327	96.125
129.222	100.825
133.56755	105.625
137.90993	112.125
142.24913	124.925
146.58517	140.125
150.91804	158.925
155.24774	187.225
159.57429	229.525
163.89768	290.125
168.21792	383.725
172.53501	519.525
176.84895	721.525
181.15975	1012.025
185.46741	1414.225
189.77193	1954.225
194.07331	2602.125
198.37157	3386.325
202.6667	4179.425
206.9587	4955.225
211.24758	5716.525
215.53334	6535.425
219.81599	7334.425
224.09553	8226.525
228.37195	9239.525
232.64527	10315.225
236.91549	11481.025
241.18261	12655.325
245.44663	13753.125
249.70755	14750.925
253.96539	15661.325
258.22014	16390.525
262.4718	17026.925
266.72039	17410.425
270.96589	17591.825
275.20832	17628.925
279.44768	17499.025
283.68397	17297.825
287.91719	17089.825
292.14735	16930.425
296.37445	16882.325
300.59849	16883.025
304.81948	16914.125
309.03742	16930.125
313.25231	16916.925
317.46415	16697.925
321.67296	16439.525
325.87872	16208.725
330.08145	16127.825
334.28114	16106.725
338.47781	16229.225
342.67145	16390.225
346.86207	16649.325
351.04966	16946.325
355.23424	17248.925
359.4158	17500.525
363.59435	17710.425
367.76989	17889.725
371.94243	17978.825
376.11196	18105.425
380.27849	18147.625
384.44203	18219.425
388.60257	18362.425
392.76012	18517.225
396.91468	18775.025
401.06626	19024.225
405.21485	19171.625
409.36047	19186.025
413.50311	18996.525
417.64277	18953.725
421.77947	19033.325
425.9132	19185.825
430.04396	19247.425
434.17176	19353.025
438.2966	19421.225
442.41849	19573.625
446.53742	19941.425
450.6534	20355.825
454.76644	20670.025
458.87653	20741.925
462.98368	20663.025
467.08789	20429.625
471.18916	20168.325
475.2875	19843.725
479.38291	19615.725
483.4754	19429.025
487.56496	19275.425
491.6516	19147.225
495.73531	18977.925
499.81612	19004.525
503.89401	19130.525
507.96899	19286.925
512.04106	19302.325
516.11023	19221.925
520.1765	19047.825
524.23987	18851.525
528.30034	18715.025
532.35792	18579.225
536.41261	18412.225
540.46441	18200.225
544.51333	18179.325
548.55936	18296.425
552.60252	18581.825
556.64279	18887.325
560.6802	19149.725
564.71473	19256.325
568.7464	19438.125
572.7752	19819.325
576.80114	20335.325
580.82422	21016.425
584.84444	21969.625
588.86181	23107.325
592.87633	24092.725
596.888	23971.425
600.89682	22845.025
604.9028	22199.525
608.90594	23012.325
612.90624	24221.925
616.90371	23153.525
620.89834	20334.325
624.89015	18997.625
628.87913	18828.125
632.86528	18955.325
636.84862	18932.625
640.82913	18655.425
644.80683	18268.925
648.78172	18073.525
652.75379	18098.325
656.72306	18266.625
660.68952	18516.025
664.65319	18443.025
668.61405	18174.425
672.57211	18139.625
676.52738	18214.625
680.47986	18169.525
684.42955	18107.825
688.37646	17988.125
692.32058	18054.425
696.26192	18331.125
700.20048	18548.725
704.13626	18663.125
708.06928	18681.525
711.99952	18626.425
715.927	18612.525
719.85171	18687.625
723.77365	18613.425
727.69284	18358.225
731.60928	18152.725
735.52295	18035.525
739.43388	18010.325
743.34206	18087.625
747.24749	18169.525
751.15017	18347.425
755.05012	18578.525
758.94733	18968.125
762.8418	19631.125
766.73354	20628.825
770.62254	21567.725
774.50882	21736.125
778.39237	21091.825
782.27321	20047.825
786.15132	19156.725
790.02671	18584.425
793.89938	18279.025
797.76935	18171.925
801.6366	18106.725
805.50115	18070.425
809.36299	17985.725
813.22213	17884.825
817.07857	17789.925
820.93231	17718.625
824.78336	17651.825
828.63172	17605.925
832.47738	17598.425
836.32036	17602.725
840.16066	17592.825
843.99827	17610.625
847.8332	17593.625
851.66546	17596.225
855.49504	17563.725
859.32195	17626.725
863.1462	17575.725
866.96777	17587.225
870.78668	17544.025
874.60293	17592.325
878.41652	17581.225
882.22745	17634.425
886.03573	17670.325
889.84136	17690.525
893.64433	17637.025
897.44466	17576.025
901.24235	17537.925
905.0374	17470.325
908.8298	17400.325
912.61957	17425.025
916.40671	17552.225
920.19121	17703.125
923.97308	17905.125
927.75233	17972.825
931.52895	17859.625
935.30295	17646.825
939.07433	17383.325
942.84309	17200.825
946.60924	17086.325
950.37278	17101.525
954.13371	17100.625
957.89203	17069.325
961.64774	17015.025
965.40086	17018.925
969.15137	16995.625
972.89929	16968.425
976.64461	16939.225
980.38733	16919.225
984.12747	16954.825
987.86502	17039.025
991.59999	17118.625
995.33237	17272.525
999.06217	17507.625
1002.78939	17889.325
1006.51404	18211.225
1010.23611	18510.625
1013.95561	18688.525
1017.67255	18713.525
1021.38692	18489.825
1025.09872	18220.425
1028.80796	18049.125
1032.51465	18075.125
1036.21877	18258.525
1039.92035	18299.125
1043.61937	18328.625
1047.31584	18236.525
1051.00976	18154.425
1054.70114	18082.825
1058.38998	18122.025
1062.07627	18276.325
1065.76003	18394.225
1069.44126	18579.725
1073.11995	18872.025
1076.79611	19156.625
1080.46974	19285.225
1084.14085	19399.025
1087.80943	19473.425
1091.47549	19641.125
1095.13903	19661.525
1098.80005	19480.325
1102.45857	19138.425
1106.11456	18799.825
1109.76805	18589.225
1113.41903	18528.525
1117.06751	18588.025
1120.71348	18715.125
1124.35696	18832.325
1127.99793	18965.525
1131.63641	19100.725
1135.2724	19058.225
1138.90589	19017.625
1142.5369	19032.825
1146.16542	19113.925
1149.79145	19209.525
1153.415	19300.825
1157.03607	19447.025
1160.65467	19808.425
1164.27079	20530.525
1167.88443	21442.325
1171.49561	22337.425
1175.10432	23382.225
1178.71056	24699.225
1182.31434	26057.625
1185.91565	26772.025
1189.51451	26667.625
1193.11091	26171.225
1196.70485	25496.325
1200.29634	24770.425
1203.88538	24268.425
1207.47197	24031.925
1211.05612	23886.025
1214.63782	23537.225
1218.21708	22996.525
1221.79391	22405.025
1225.36829	21999.325
1228.94024	21756.125
1232.50976	21567.825
1236.07685	21317.525
1239.6415	21101.925
1243.20374	21112.625
1246.76355	21264.425
1250.32093	21514.025
1253.8759	21910.725
1257.42845	22386.525
1260.97859	22955.625
1264.52631	23548.525
1268.07163	24123.925
1271.61453	24712.825
1275.15503	25277.325
1278.69312	25804.525
1282.22882	26407.725
1285.76211	27155.525
1289.29301	27944.025
1292.82151	28997.325
1296.34761	30277.225
1299.87133	31819.625
1303.39266	33489.825
1306.9116	34947.425
1310.42815	36004.925
1313.94233	36428.225
1317.45412	36050.925
1320.96354	35245.325
1324.47058	34611.325
1327.97525	34195.125
1331.47754	34016.625
1334.97747	33831.925
1338.47502	33524.225
1341.97022	33155.625
1345.46305	32648.725
1348.95352	32328.025
1352.44163	32393.425
1355.92738	33125.225
1359.41078	34517.825
1362.89183	35648.325
1366.37053	35477.825
1369.84688	33205.025
1373.32088	29940.125
1376.79254	27470.025
1380.26186	26437.625
1383.72883	26400.225
1387.19347	26421.625
1390.65578	26119.225
1394.11575	25907.525
1397.57339	25996.225
1401.0287	26388.225
1404.48168	26773.325
1407.93234	26865.525
1411.38068	26618.625
1414.82669	25980.525
1418.27039	25128.225
1421.71177	24377.325
1425.15083	23671.725
1428.58758	23376.125
1432.02203	23576.825
1435.45416	24211.725
1438.88399	24860.225
1442.31151	25318.725
1445.73673	25491.925
1449.15965	25490.625
1452.58027	25357.625
1455.9986	25228.725
1459.41463	25256.525
1462.82837	25550.525
1466.23982	26095.725
1469.64898	26553.825
1473.05586	26897.025
1476.46045	26967.325
1479.86276	26817.625
1483.26279	26570.825
1486.66054	26393.925
1490.05602	26535.925
1493.44922	26734.925
1496.84016	27000.225
1500.22882	27339.725
1503.61521	27896.125
1506.99934	28525.125
1510.38121	29013.125
1513.76081	29079.625
1517.13816	28610.825
1520.51324	27898.725
1523.88607	27357.025
1527.25665	27169.625
1530.62498	27118.925
1533.99105	26965.525
1537.35488	26621.625
1540.71647	26129.625
1544.07581	25534.625
1547.4329	25007.625
1550.78776	24481.725
1554.14038	24108.625
1557.49077	23943.525
1560.83892	23768.625
1564.18484	23705.725
1567.52853	23656.725
1570.86999	23816.325
1574.20922	24205.525
1577.54624	24495.725
1580.88103	24627.225
1584.2136	24845.825
1587.54395	25619.525
1590.87208	26929.125
1594.19801	28538.225
1597.52172	30124.925
1600.84321	30541.125
1604.16251	29311.725
1607.47959	27057.725
1610.79447	24749.825
1614.10715	22756.125
1617.41763	21180.525
1620.7259	20173.525
1624.03199	19673.025
1627.33587	19717.025
1630.63757	20170.625
1633.93707	21341.225
1637.23439	23161.525
1640.52951	25918.325
1643.82246	29242.825
1647.11321	31862.825
1650.40179	32261.425
1653.68819	29907.625
1656.97241	26003.625
1660.25446	22485.425
1663.53433	19950.125
1666.81203	18387.925
1670.08756	17468.825
1673.36092	16897.125
1676.63211	16517.925
1679.90115	16267.025
1683.16801	16036.125
1686.43272	15879.425
1689.69527	15749.825
1692.95567	15628.225
1696.2139	15536.925
1699.46999	15478.825
1702.72392	15412.525
1705.97571	15432.825
1709.22535	15385.425
1712.47284	15446.725
1715.71819	15453.925
1718.96139	15386.525
1722.20246	15340.725
1725.44139	15333.325
1728.67818	15237.025
1731.91284	15165.625
1735.14537	15077.525
1738.37576	15002.325
1741.60403	14947.725
1744.83017	14906.125
1748.05418	14840.125
1751.27607	14818.125
1754.49584	14761.825
1757.71349	14760.825
1760.92903	14725.025
1764.14244	14697.325
1767.35375	14744.025
1770.56294	14694.125
1773.77002	14674.825
1776.97499	14692.125
1780.17785	14685.925
1783.37861	14673.525
1786.57727	14639.025
1789.77382	14630.625
1792.96828	14609.125
1796.16064	14563.025
1799.3509	14546.725
1802.53907	14526.725
1805.72514	14456.925
1808.90913	14455.125
1812.09102	14416.925
1815.27083	14400.925
1818.44856	14378.325
1821.6242	14333.925
1824.79776	14325.825
1827.96924	14332.725
1831.13864	14338.925
1834.30597	14305.825
1837.47122	14324.825
1840.6344	14290.325
1843.7955	14323.125
1846.95454	14301.825
1850.11151	14329.925
1853.26642	14313.525
1856.41926	14307.525
1859.57004	14323.025
1862.71876	14279.725
1865.86542	14237.925
1869.01003	14215.625
1872.15258	14190.225
1875.29308	14195.225
1878.43152	14177.825
1881.56792	14161.325
1884.70227	14124.325
1887.83457	14115.125
1890.96482	14085.625
1894.09304	14053.325
1897.21921	14044.625
1900.34335	14042.325
1903.46544	14053.225
1906.58551	14007.425
1909.70353	13975.725
1912.81953	13950.025
1915.93349	13944.625
1919.04543	13941.825
1922.15534	13864.025
1925.26322	13835.925
1928.36908	13813.325
1931.47292	13786.925
1934.57473	13734.925
1937.67453	13766.525
1940.77232	13697.125
1943.86808	13663.925
1946.96184	13598.025
1950.05358	13560.425
1953.14331	13556.025
1956.23103	13509.425
1959.31675	13487.725
1962.40046	13454.025
1965.48217	13430.225
1968.56188	13366.725
1971.63959	13332.825
1974.7153	13281.825
1977.78901	13240.825
1980.86073	13173.425
1983.93046	13160.025
1986.99819	13130.625
1990.06394	13108.025
1993.1277	13028.225
1996.18947	13001.625
1999.24925	12991.825
2002.30706	12912.325
2005.36288	12866.325
2008.41672	12858.125
2011.46859	12813.125
2014.51848	12785.725
2017.56639	12774.525
2020.61233	12739.725
2023.6563	12699.225
2026.6983	12651.125
2029.73833	12646.425
2032.7764	12619.325
2035.8125	12608.425
2038.84664	12553.725
2041.87881	12535.525
2044.90903	12523.025
2047.93729	12476.225
2050.96359	12487.625
2053.98794	12471.525
2057.01034	12440.625
2060.03078	12434.225
2063.04927	12434.125
2066.06582	12442.625
2069.08042	12424.525
2072.09307	12407.625
2075.10378	12412.625
2078.11255	12387.325
2081.11938	12410.425
2084.12426	12379.625
2087.12722	12388.125
2090.12824	12357.925
2093.12732	12384.825
2096.12447	12368.225
2099.11969	12394.325
2102.11299	12395.025
2105.10435	12408.125
2108.09379	12410.525
2111.08131	12417.325
2114.0669	12420.825
2117.05057	12434.325
2120.03233	12427.025
2123.01216	12423.125
2125.99008	12438.025
2128.96609	12448.425
2131.94018	12457.425
2134.91236	12442.325
2137.88263	12424.325
2140.851	12453.125
2143.81746	12465.625
2146.78201	12445.925
2149.74466	12455.925
2152.7054	12486.725
2155.66425	12455.925
2158.6212	12463.225
2161.57625	12450.425
2164.52941	12463.425
2167.48067	12443.825
2170.43004	12424.725
2173.37752	12421.425
2176.32311	12406.725
2179.26681	12443.325
2182.20863	12412.425
2185.14856	12403.525
2188.08661	12433.025
2191.02278	12436.425
2193.95707	12438.825
2196.88948	12411.525
2199.82001	12413.325
2202.74867	12397.725
2205.67545	12410.825
2208.60037	12354.225
2211.52341	12361.225
2214.44458	12301.025
2217.36388	12285.225
2220.28132	12277.425
2223.1969	12259.725
2226.11061	12241.325
2229.02246	12242.525
2231.93245	12222.025
2234.84058	12187.025
2237.74686	12174.725
2240.65128	12181.725
2243.55385	12137.525
2246.45456	12111.925
2249.35343	12097.225
2252.25044	12097.825
2255.14561	12046.225
2258.03893	12050.625
2260.93041	11985.425
2263.82004	11982.725
2266.70783	11965.525
2269.59378	11918.625
2272.4779	11916.025
2275.36017	11878.625
2278.24061	11869.425
2281.11922	11859.925
2283.996	11834.125
2286.87094	11801.725
2289.74405	11808.225
2292.61534	11774.625
2295.4848	11760.425
2298.35243	11770.825
2301.21824	11740.725
2304.08223	11752.325
2306.94439	11746.425
2309.80474	11769.825
2312.66327	11744.625
2315.51999	11715.125
2318.37489	11751.425
2321.22797	11685.725
2324.07925	11691.025
2326.92871	11689.825
2329.77637	11645.425
2332.62222	11641.325
2335.46626	11621.725
2338.3085	11589.625
2341.14893	11579.425
2343.98756	11588.325
2346.8244	11605.725
2349.65943	11603.525
2352.49267	11549.625
2355.32411	11589.125
2358.15376	11548.925
2360.98161	11575.225
2363.80768	11570.625
2366.63195	11553.125
2369.45444	11540.125
2372.27514	11496.525
2375.09405	11502.425
2377.91118	11491.125
2380.72652	11456.025
2383.54009	11433.025
2386.35187	11424.425
2389.16188	11388.725
2391.97011	11368.425
2394.77657	11344.125
2397.58125	11328.925
2400.38416	11327.625
2403.18529	11295.225
2405.98466	11273.325
2408.78226	11260.925
2411.57809	11251.425
2414.37216	11231.125
2417.16446	11245.825
2419.955	11233.625
2422.74378	11236.725
2425.5308	11226.625
2428.31606	11201.825
2431.09956	11193.725
2433.88131	11187.125
2436.6613	11195.225
2439.43954	11181.825
2442.21603	11167.925
2444.99077	11152.625
2447.76377	11158.425
2450.53501	11138.725
2453.30451	11150.425
2456.07226	11152.125
2458.83827	11106.825
2461.60254	11131.725
2464.36507	11101.425
2467.12586	11103.325
2469.88492	11091.725
2472.64224	11100.325
2475.39782	11118.125
2478.15167	11088.825
2480.90379	11088.325
2483.65417	11105.125
2486.40283	11089.625
2489.14976	11088.125
2491.89497	11076.825
2494.63845	11075.725
2497.3802	11050.125
2500.12024	11061.925
2502.85855	11048.225
2505.59514	11046.225
2508.33002	11028.925
2511.06318	11028.125
2513.79462	11000.125
2516.52435	10983.825
2519.25237	10993.625
2521.97867	10993.025
2524.70327	10962.825
2527.42616	10949.525
2530.14734	10953.325
2532.86681	10937.425
2535.58458	10936.725
2538.30065	10917.825
2541.01501	10928.225
2543.72768	10906.025
2546.43864	10916.325
2549.14791	10902.125
2551.85548	10864.425
2554.56136	10859.025
2557.26554	10852.925
2559.96803	10842.825
2562.66883	10813.125
2565.36794	10829.625
2568.06536	10809.325
2570.7611	10792.825
2573.45514	10760.725
2576.14751	10744.125
2578.83819	10754.225
2581.52719	10744.425
2584.21451	10731.025
2586.90015	10691.025
2589.58411	10682.025
2592.2664	10694.825
2594.94701	10669.725
2597.62594	10686.825
2600.30321	10639.025
2602.9788	10644.025
2605.65273	10629.925
2608.32498	10624.225
2610.99557	10603.925
2613.66449	10628.125
2616.33175	10602.525
2618.99734	10597.925
2621.66128	10585.925
2624.32355	10555.925
2626.98416	10561.125
2629.64311	10545.225
2632.30041	10545.925
2634.95605	10499.825
2637.61004	10520.225
2640.26238	10477.725
2642.91306	10489.725
2645.56209	10505.225
2648.20948	10490.925
2650.85521	10499.325
2653.4993	10489.125
2656.14175	10511.025
2658.78255	10517.125
2661.42171	10510.425
2664.05923	10526.925
2666.6951	10511.925
2669.32934	10528.225
2671.96194	10506.325
2674.59291	10521.225
2677.22224	10527.325
2679.84993	10525.425
2682.476	10502.925
2685.10043	10496.525
2687.72324	10473.125
2690.34441	10488.025
2692.96396	10486.725
2695.58188	10495.125
2698.19818	10464.125
2700.81285	10504.325
2703.4259	10478.425
2706.03733	10474.825
2708.64714	10476.125
2711.25533	10488.425
2713.86191	10495.625
2716.46687	10514.725
2719.07021	10494.325
2721.67194	10491.525
2724.27206	10507.625
2726.87057	10517.725
2729.46747	10517.525
2732.06276	10514.125
2734.65644	10519.925
2737.24852	10507.625
2739.83899	10522.825
2742.42786	10512.525
2745.01513	10494.125
2747.60079	10483.825
2750.18486	10467.825
2752.76733	10481.625
2755.3482	10456.325
2757.92747	10452.325
2760.50515	10442.225
2763.08123	10431.225
2765.65573	10437.725
2768.22863	10404.725
2770.79994	10411.925
2773.36967	10390.725
2775.9378	10413.025
2778.50435	10411.225
2781.06932	10376.425
2783.6327	10349.325
2786.1945	10359.125
2788.75471	10349.125
2791.31335	10330.325
2793.87041	10289.025
2796.42589	10285.125
2798.97979	10286.425
2801.53212	10272.525
2804.08288	10254.325
2806.63206	10206.125
2809.17967	10205.225
2811.72571	10184.325
2814.27018	10153.025
2816.81308	10141.625
2819.35442	10134.925
2821.89419	10128.525
2824.43239	10120.425
2826.96904	10081.825
2829.50412	10107.025
2832.03763	10099.325
2834.56959	10090.225
2837.1	10062.025
2839.62884	10081.925
2842.15613	10069.425
2844.68186	10096.025
2847.20604	10071.625
2849.72867	10092.925
2852.24974	10083.225
2854.76927	10055.925
2857.28724	10064.025
2859.80367	10056.025
2862.31855	9998.025
2864.83189	9995.825
2867.34368	10001.625
2869.85393	9996.825
2872.36264	9948.325
2874.8698	9969.725
2877.37543	9963.525
2879.87952	9936.225
2882.38207	9931.325
2884.88308	9950.525
2887.38256	9951.825
2889.88051	9947.425
2892.37692	9943.925
2894.8718	9926.625
2897.36515	9948.625
2899.85698	9956.125
2902.34727	9984.125
2904.83604	9977.225
2907.32328	10002.225
2909.809	9993.725
2912.29319	10006.425
2914.77587	9976.625
2917.25702	9967.125
2919.73665	9972.725
2922.21476	9984.325
2924.69136	9962.025
2927.16644	9985.225
2929.64	9935.525
2932.11205	9946.125
2934.58258	9908.725
2937.05161	9920.225
2939.51912	9907.225
2941.98513	9873.025
2944.44962	9859.825
2946.91261	9841.225
2949.37409	9849.625
2951.83407	9845.725
2954.29254	9843.725
2956.74951	9829.525
2959.20498	9797.925
2961.65895	9781.825
2964.11142	9804.825
2966.56239	9788.025
2969.01186	9788.525
2971.45984	9740.525
2973.90632	9738.225
2976.35131	9729.325
2978.7948	9683.525
2981.23681	9670.925
2983.67732	9665.925
2986.11635	9639.825
2988.55388	9606.525
2990.98993	9583.925
2993.4245	9558.425
2995.85758	9557.825
2998.28917	9528.025
3000.71928	9486.625
3003.14791	9493.725
3005.57506	9468.625
3008.00073	9466.725
3010.42493	9469.525
3012.84764	9436.825
3015.26888	9443.925
3017.68865	9403.925
3020.10694	9404.725
3022.52376	9363.625
3024.9391	9347.425
3027.35298	9349.325
3029.76539	9347.925
3032.17632	9335.425
3034.5858	9323.125
3036.9938	9327.925
3039.40034	9308.825
3041.80542	9339.525
3044.20903	9290.825
3046.61118	9281.525
3049.01187	9264.025
3051.4111	9268.025
3053.80888	9220.725
3056.20519	9228.425
3058.60005	9206.825
3060.99345	9178.725
3063.3854	9163.725
3065.7759	9118.325
3068.16494	9126.625
3070.55254	9089.025
3072.93868	9055.925
3075.32338	9039.425
3077.70662	9036.125
3080.08842	9021.025
3082.46878	9011.325
3084.84769	9004.325
3087.22515	8973.325
3089.60118	8980.725
3091.97576	8970.925
3094.3489	8977.025
3096.72061	8974.125
3099.09087	8985.325
3101.4597	8957.025
3103.82709	8960.525
3106.19305	8952.625
3108.55757	8971.225
3110.92066	8918.425
3113.28232	8914.325
3115.64255	8889.825
3118.00134	8880.225
3120.35871	8867.725
3122.71466	8854.825
3125.06917	8815.225
3127.42226	8811.325
3129.77393	8807.625
3132.12417	8788.725
3134.47299	8776.325
3136.82039	8802.825
3139.16636	8794.125
3141.51092	8794.225
3143.85406	8815.825
3146.19579	8805.725
3148.53609	8799.925
3150.87499	8818.225
3153.21246	8836.725
3155.54853	8814.225
3157.88318	8787.725
3160.21642	8790.525
3162.54826	8781.225
3164.87868	8772.525
3167.2077	8778.425
3169.5353	8804.225
3171.86151	8788.825
3174.18631	8788.425
3176.5097	8769.625
3178.83169	8760.825
3181.15228	8776.725
3183.47147	8740.725
3185.78926	8742.325
3188.10565	8716.425
3190.42065	8694.425
3192.73424	8710.825
3195.04645	8709.125
3197.35725	8704.725
3199.66667	8677.925
3201.97469	8700.225
3204.28132	8675.325
3206.58656	8702.925
3208.8904	8682.725
3211.19287	8698.925
3213.49394	8693.525
3215.79363	8709.225
3218.09193	8683.125
3220.38884	8710.525
3222.68438	8699.925
3224.97853	8661.125
3227.2713	8693.225
3229.56269	8683.125
3231.8527	8684.225
3234.14133	8651.625
3236.42858	8640.425
3238.71446	8631.025
3240.99896	8615.025
3243.28209	8605.825
3245.56384	8598.325
3247.84423	8595.725
3250.12324	8576.325
3252.40088	8583.725
3254.67715	8570.925
3256.95205	8543.625
3259.22558	8571.025
3261.49775	8547.325
3263.76855	8512.825
3266.03799	8477.425
3268.30606	8484.325
3270.57277	8493.025
3272.83812	8453.225
3275.10211	8416.425
3277.36474	8423.525
3279.62601	8419.225
3281.88593	8400.425
3284.14448	8428.725
3286.40168	8425.725
3288.65753	8439.625
3290.91202	8424.125
3293.16516	8399.325
3295.41695	8357.525
3297.66738	8294.625
3299.91647	8266.325
3302.16421	8210.925
3304.4106	8178.825
3306.65564	8139.125
3308.89933	8086.625
3311.14169	8048.825
3313.38269	7964.125
3315.62236	7923.425
3317.86068	7848.425
3320.09766	7780.625
3322.3333	7745.425
3324.5676	7734.025
3326.80056	7597.125
3329.03219	7558.125
3331.26248	2.525
3333.49143	0.725
3335.71905	-1.975
