Data from AgNPs_FTO_APTES_UA_1uM_CRN_2uM_R6G_10uM_NaF_0.1M_Addition_RamanShift__5__13-01-09-534.txt Node

Date: Thu Jan 27 13:01:09 GMT 2022
User: TCL
Spectrometer: QEP01345
Trigger mode: 4
Integration Time (sec): 7.000000E0
Scans to average: 10
Electric dark correction enabled: true
Nonlinearity correction enabled: false
Boxcar width: 0
XAxis mode: Raman Shifts
Number of Pixels in Spectrum: 1044
>>>>>Begin Spectral Data<<<<<
46.04893	0.375
50.45542	0.175
54.85868	-1.825
59.25871	-1.325
63.6555	59.375
68.04907	62.275
72.43941	61.375
76.82654	69.675
81.21044	71.675
85.59113	70.675
89.96862	75.575
94.34289	78.875
98.71396	82.075
103.08183	78.475
107.4465	84.275
111.80798	89.475
116.16626	88.875
120.52136	96.875
124.87327	93.475
129.222	95.175
133.56755	101.075
137.90993	110.675
142.24913	120.075
146.58517	129.775
150.91804	150.675
155.24774	173.975
159.57429	212.275
163.89768	268.375
168.21792	354.675
172.53501	471.875
176.84895	656.775
181.15975	914.175
185.46741	1281.675
189.77193	1758.675
194.07331	2368.475
198.37157	3052.675
202.6667	3761.075
206.9587	4473.175
211.24758	5159.775
215.53334	5865.575
219.81599	6628.775
224.09553	7438.875
228.37195	8362.975
232.64527	9356.775
236.91549	10409.575
241.18261	11464.675
245.44663	12449.175
249.70755	13354.575
253.96539	14107.375
258.22014	14751.875
262.4718	15302.875
266.72039	15659.575
270.96589	15827.275
275.20832	15828.275
279.44768	15717.775
283.68397	15542.875
287.91719	15331.575
292.14735	15200.475
296.37445	15149.675
300.59849	15225.775
304.81948	15292.575
309.03742	15309.075
313.25231	15291.475
317.46415	15090.975
321.67296	14838.275
325.87872	14627.975
330.08145	14523.875
334.28114	14494.075
338.47781	14577.875
342.67145	14733.275
346.86207	14979.375
351.04966	15260.375
355.23424	15574.975
359.4158	15833.375
363.59435	16078.675
367.76989	16204.575
371.94243	16364.275
376.11196	16434.075
380.27849	16492.975
384.44203	16611.075
388.60257	16784.875
392.76012	16926.775
396.91468	17141.375
401.06626	17356.075
405.21485	17523.675
409.36047	17547.775
413.50311	17435.575
417.64277	17380.575
421.77947	17449.575
425.9132	17574.775
430.04396	17684.175
434.17176	17776.175
438.2966	17849.275
442.41849	18071.175
446.53742	18546.375
450.6534	19081.775
454.76644	19464.275
458.87653	19543.475
462.98368	19383.175
467.08789	19074.875
471.18916	18714.475
475.2875	18246.675
479.38291	17946.175
483.4754	17759.275
487.56496	17584.275
491.6516	17507.875
495.73531	17396.575
499.81612	17452.475
503.89401	17600.175
507.96899	17695.275
512.04106	17627.075
516.11023	17510.275
520.1765	17445.975
524.23987	17338.175
528.30034	17228.675
532.35792	17105.375
536.41261	16888.475
540.46441	16633.275
544.51333	16586.475
548.55936	16690.575
552.60252	16992.675
556.64279	17369.375
560.6802	17592.875
564.71473	17665.975
568.7464	17770.675
572.7752	18123.475
576.80114	18544.875
580.82422	19107.375
584.84444	19901.375
588.86181	20940.175
592.87633	21761.775
596.888	21727.975
600.89682	20922.075
604.9028	20682.375
608.90594	21953.475
612.90624	23475.175
616.90371	22344.275
620.89834	19315.075
624.89015	17919.175
628.87913	17689.775
632.86528	17616.875
636.84862	17382.175
640.82913	17058.475
644.80683	16651.275
648.78172	16438.175
652.75379	16486.875
656.72306	16677.575
660.68952	16929.175
664.65319	16875.275
668.61405	16644.175
672.57211	16559.675
676.52738	16674.775
680.47986	16614.775
684.42955	16515.075
688.37646	16435.775
692.32058	16561.875
696.26192	16832.375
700.20048	17118.275
704.13626	17206.375
708.06928	17111.375
711.99952	16945.775
715.927	16982.875
719.85171	17094.275
723.77365	17048.375
727.69284	16825.475
731.60928	16560.875
735.52295	16465.875
739.43388	16471.475
743.34206	16562.975
747.24749	16653.375
751.15017	16777.075
755.05012	17044.875
758.94733	17439.675
762.8418	18077.375
766.73354	19097.975
770.62254	20089.675
774.50882	20346.575
778.39237	19669.475
782.27321	18623.475
786.15132	17723.275
790.02671	17137.075
793.89938	16905.275
797.76935	16828.975
801.6366	16850.475
805.50115	16788.675
809.36299	16681.775
813.22213	16542.175
817.07857	16418.875
820.93231	16348.975
824.78336	16343.275
828.63172	16329.775
832.47738	16369.875
836.32036	16443.475
840.16066	16597.275
843.99827	16707.375
847.8332	16648.275
851.66546	16482.275
855.49504	16447.975
859.32195	16436.675
863.1462	16382.075
866.96777	16285.475
870.78668	16230.675
874.60293	16207.775
878.41652	16209.875
882.22745	16310.775
886.03573	16415.975
889.84136	16409.875
893.64433	16300.575
897.44466	16217.675
901.24235	16113.975
905.0374	16061.475
908.8298	16081.775
912.61957	16103.975
916.40671	16256.175
920.19121	16520.875
923.97308	16798.775
927.75233	16981.875
931.52895	16950.075
935.30295	16753.675
939.07433	16503.675
942.84309	16296.075
946.60924	16233.775
950.37278	16178.875
954.13371	16136.475
957.89203	16034.275
961.64774	15945.075
965.40086	15917.675
969.15137	15887.775
972.89929	15860.075
976.64461	15850.275
980.38733	15952.475
984.12747	16059.775
987.86502	16274.675
991.59999	16515.575
995.33237	16923.275
999.06217	17581.875
1002.78939	18361.975
1006.51404	18850.875
1010.23611	19033.275
1013.95561	19128.575
1017.67255	18976.775
1021.38692	18755.475
1025.09872	18539.275
1028.80796	18919.775
1032.51465	19908.775
1036.21877	20921.275
1039.92035	21178.675
1043.61937	20837.875
1047.31584	19952.375
1051.00976	19021.275
1054.70114	18376.275
1058.38998	18094.075
1062.07627	18015.675
1065.76003	17958.475
1069.44126	18052.275
1073.11995	18314.375
1076.79611	18582.175
1080.46974	18765.775
1084.14085	18886.675
1087.80943	19020.875
1091.47549	19047.675
1095.13903	18954.675
1098.80005	18739.875
1102.45857	18373.875
1106.11456	18143.675
1109.76805	18020.975
1113.41903	17976.375
1117.06751	18026.575
1120.71348	18055.975
1124.35696	18185.175
1127.99793	18396.975
1131.63641	18507.275
1135.2724	18483.575
1138.90589	18387.275
1142.5369	18429.175
1146.16542	18467.475
1149.79145	18532.875
1153.415	18576.475
1157.03607	18779.975
1160.65467	19205.975
1164.27079	19985.175
1167.88443	20997.875
1171.49561	22061.775
1175.10432	23358.675
1178.71056	25140.575
1182.31434	26976.075
1185.91565	28052.975
1189.51451	27971.875
1193.11091	27174.975
1196.70485	26129.775
1200.29634	25174.075
1203.88538	24585.975
1207.47197	24190.075
1211.05612	23859.475
1214.63782	23414.275
1218.21708	22968.275
1221.79391	22613.775
1225.36829	22355.175
1228.94024	22012.575
1232.50976	21535.575
1236.07685	21078.275
1239.6415	20829.775
1243.20374	20852.075
1246.76355	21089.875
1250.32093	21566.275
1253.8759	22150.075
1257.42845	22792.875
1260.97859	23503.675
1264.52631	24212.075
1268.07163	25021.575
1271.61453	25943.575
1275.15503	26828.775
1278.69312	27715.875
1282.22882	28395.075
1285.76211	28942.975
1289.29301	29559.975
1292.82151	30521.975
1296.34761	32008.775
1299.87133	34088.975
1303.39266	36532.575
1306.9116	38854.875
1310.42815	40482.275
1313.94233	40798.475
1317.45412	39913.475
1320.96354	38358.975
1324.47058	36966.875
1327.97525	35928.275
1331.47754	35267.375
1334.97747	34808.975
1338.47502	34341.375
1341.97022	33718.475
1345.46305	32880.075
1348.95352	32441.675
1352.44163	32789.375
1355.92738	34314.375
1359.41078	36543.275
1362.89183	38189.075
1366.37053	37699.875
1369.84688	34818.775
1373.32088	31002.175
1376.79254	28284.475
1380.26186	27180.975
1383.72883	27014.575
1387.19347	26981.375
1390.65578	26563.375
1394.11575	26306.875
1397.57339	26393.075
1401.0287	26760.175
1404.48168	27100.575
1407.93234	27232.275
1411.38068	27007.675
1414.82669	26534.175
1418.27039	25760.375
1421.71177	24917.975
1425.15083	24189.575
1428.58758	23866.675
1432.02203	24127.575
1435.45416	24848.775
1438.88399	25621.375
1442.31151	26132.975
1445.73673	26295.475
1449.15965	26334.575
1452.58027	26177.575
1455.9986	25908.775
1459.41463	25864.975
1462.82837	26210.375
1466.23982	26816.675
1469.64898	27423.375
1473.05586	27915.575
1476.46045	28167.975
1479.86276	28067.975
1483.26279	27717.075
1486.66054	27496.175
1490.05602	27528.775
1493.44922	27657.975
1496.84016	27733.675
1500.22882	27834.475
1503.61521	28158.975
1506.99934	28691.375
1510.38121	29157.875
1513.76081	29274.675
1517.13816	28694.075
1520.51324	27875.875
1523.88607	27255.675
1527.25665	27043.575
1530.62498	27066.875
1533.99105	27083.275
1537.35488	26897.175
1540.71647	26578.475
1544.07581	26092.375
1547.4329	25690.675
1550.78776	25287.975
1554.14038	24888.275
1557.49077	24596.275
1560.83892	24319.275
1564.18484	24092.675
1567.52853	23991.675
1570.86999	24079.575
1574.20922	24399.475
1577.54624	24732.475
1580.88103	24922.975
1584.2136	25385.175
1587.54395	26443.975
1590.87208	28216.175
1594.19801	30454.275
1597.52172	32460.175
1600.84321	32985.875
1604.16251	31474.075
1607.47959	28574.775
1610.79447	25656.775
1614.10715	23190.075
1617.41763	21445.175
1620.7259	20392.375
1624.03199	19964.375
1627.33587	20124.275
1630.63757	20809.375
1633.93707	21998.275
1637.23439	23887.075
1640.52951	26585.775
1643.82246	29714.075
1647.11321	32069.475
1650.40179	32163.675
1653.68819	29472.275
1656.97241	25483.875
1660.25446	21976.875
1663.53433	19497.675
1666.81203	18059.075
1670.08756	17188.975
1673.36092	16651.275
1676.63211	16287.775
1679.90115	16033.575
1683.16801	15843.775
1686.43272	15675.675
1689.69527	15567.575
1692.95567	15449.075
1696.2139	15357.775
1699.46999	15287.175
1702.72392	15280.475
1705.97571	15255.975
1709.22535	15306.775
1712.47284	15285.375
1715.71819	15306.175
1718.96139	15299.075
1722.20246	15221.275
1725.44139	15211.875
1728.67818	15146.375
1731.91284	15058.575
1735.14537	14953.575
1738.37576	14939.775
1741.60403	14850.375
1744.83017	14814.475
1748.05418	14772.075
1751.27607	14725.275
1754.49584	14706.275
1757.71349	14685.475
1760.92903	14693.075
1764.14244	14662.375
1767.35375	14630.975
1770.56294	14639.775
1773.77002	14623.375
1776.97499	14655.075
1780.17785	14599.775
1783.37861	14637.475
1786.57727	14622.375
1789.77382	14630.775
1792.96828	14590.775
1796.16064	14552.975
1799.3509	14550.375
1802.53907	14541.375
1805.72514	14512.075
1808.90913	14455.575
1812.09102	14450.475
1815.27083	14439.075
1818.44856	14373.975
1821.6242	14358.375
1824.79776	14352.275
1827.96924	14349.975
1831.13864	14352.175
1834.30597	14386.575
1837.47122	14367.675
1840.6344	14355.575
1843.7955	14356.075
1846.95454	14381.875
1850.11151	14381.975
1853.26642	14379.075
1856.41926	14359.075
1859.57004	14385.775
1862.71876	14364.575
1865.86542	14332.375
1869.01003	14361.275
1872.15258	14306.675
1875.29308	14309.175
1878.43152	14301.375
1881.56792	14311.175
1884.70227	14282.475
1887.83457	14263.175
1890.96482	14243.775
1894.09304	14230.275
1897.21921	14226.275
1900.34335	14208.975
1903.46544	14193.575
1906.58551	14206.875
1909.70353	14201.775
1912.81953	14165.875
1915.93349	14161.675
1919.04543	14121.675
1922.15534	14119.975
1925.26322	14075.075
1928.36908	14065.375
1931.47292	14036.875
1934.57473	14014.375
1937.67453	13949.175
1940.77232	13956.875
1943.86808	13893.375
1946.96184	13859.775
1950.05358	13838.475
1953.14331	13814.675
1956.23103	13754.275
1959.31675	13747.075
1962.40046	13696.775
1965.48217	13681.175
1968.56188	13639.775
1971.63959	13613.975
1974.7153	13563.975
1977.78901	13578.475
1980.86073	13524.975
1983.93046	13493.175
1986.99819	13438.575
1990.06394	13415.075
1993.1277	13352.975
1996.18947	13305.175
1999.24925	13272.975
2002.30706	13229.375
2005.36288	13247.375
2008.41672	13204.875
2011.46859	13200.275
2014.51848	13132.575
2017.56639	13132.275
2020.61233	13096.975
2023.6563	13088.575
2026.6983	13040.675
2029.73833	13032.375
2032.7764	13036.575
2035.8125	13006.875
2038.84664	12984.375
2041.87881	12980.875
2044.90903	12977.675
2047.93729	12947.875
2050.96359	12923.975
2053.98794	12918.075
2057.01034	12930.075
2060.03078	12922.475
2063.04927	12903.575
2066.06582	12919.275
2069.08042	12906.875
2072.09307	12884.275
2075.10378	12877.175
2078.11255	12864.175
2081.11938	12855.375
2084.12426	12848.175
2087.12722	12858.475
2090.12824	12861.475
2093.12732	12845.975
2096.12447	12830.275
2099.11969	12849.775
2102.11299	12888.475
2105.10435	12906.375
2108.09379	12881.775
2111.08131	12919.875
2114.0669	12918.475
2117.05057	12934.075
2120.03233	12939.075
2123.01216	12915.375
2125.99008	12937.775
2128.96609	12963.075
2131.94018	12971.275
2134.91236	12972.575
2137.88263	12996.475
2140.851	13014.675
2143.81746	13037.875
2146.78201	13010.075
2149.74466	13051.175
2152.7054	13054.875
2155.66425	13042.875
2158.6212	13061.375
2161.57625	13051.375
2164.52941	13038.175
2167.48067	13056.875
2170.43004	13022.075
2173.37752	13030.775
2176.32311	13034.575
2179.26681	13062.675
2182.20863	13022.775
2185.14856	13061.075
2188.08661	13074.175
2191.02278	13083.875
2193.95707	13098.875
2196.88948	13105.275
2199.82001	13104.675
2202.74867	13121.375
2205.67545	13107.675
2208.60037	13076.475
2211.52341	13079.675
2214.44458	13060.375
2217.36388	13054.275
2220.28132	13079.575
2223.1969	13034.175
2226.11061	13017.875
2229.02246	13009.875
2231.93245	13020.375
2234.84058	12986.075
2237.74686	12951.375
2240.65128	12948.275
2243.55385	12950.775
2246.45456	12915.175
2249.35343	12897.875
2252.25044	12867.775
2255.14561	12850.575
2258.03893	12839.875
2260.93041	12805.675
2263.82004	12776.075
2266.70783	12778.475
2269.59378	12709.175
2272.4779	12709.175
2275.36017	12694.275
2278.24061	12677.175
2281.11922	12680.475
2283.996	12669.375
2286.87094	12673.975
2289.74405	12672.375
2292.61534	12657.975
2295.4848	12649.175
2298.35243	12678.175
2301.21824	12683.475
2304.08223	12728.075
2306.94439	12729.875
2309.80474	12733.075
2312.66327	12754.775
2315.51999	12772.275
2318.37489	12757.175
2321.22797	12762.475
2324.07925	12729.575
2326.92871	12731.275
2329.77637	12727.675
2332.62222	12697.475
2335.46626	12714.275
2338.3085	12709.775
2341.14893	12721.475
2343.98756	12732.775
2346.8244	12742.075
2349.65943	12727.775
2352.49267	12684.275
2355.32411	12694.575
2358.15376	12666.875
2360.98161	12664.375
2363.80768	12646.375
2366.63195	12632.575
2369.45444	12606.375
2372.27514	12571.775
2375.09405	12555.475
2377.91118	12551.575
2380.72652	12533.075
2383.54009	12486.175
2386.35187	12509.875
2389.16188	12481.775
2391.97011	12457.275
2394.77657	12467.175
2397.58125	12449.775
2400.38416	12431.075
2403.18529	12417.675
2405.98466	12395.175
2408.78226	12372.075
2411.57809	12373.675
2414.37216	12322.175
2417.16446	12334.375
2419.955	12313.075
2422.74378	12315.675
2425.5308	12288.175
2428.31606	12301.475
2431.09956	12309.575
2433.88131	12258.575
2436.6613	12298.275
2439.43954	12276.775
2442.21603	12262.275
2444.99077	12270.075
2447.76377	12310.975
2450.53501	12290.575
2453.30451	12285.775
2456.07226	12293.775
2458.83827	12266.475
2461.60254	12297.175
2464.36507	12296.775
2467.12586	12272.275
2469.88492	12287.275
2472.64224	12344.075
2475.39782	12335.775
2478.15167	12325.575
2480.90379	12333.975
2483.65417	12336.875
2486.40283	12348.175
2489.14976	12351.375
2491.89497	12375.975
2494.63845	12385.275
2497.3802	12359.475
2500.12024	12355.475
2502.85855	12351.375
2505.59514	12354.875
2508.33002	12356.775
2511.06318	12307.175
2513.79462	12340.975
2516.52435	12315.075
2519.25237	12324.475
2521.97867	12319.575
2524.70327	12338.175
2527.42616	12317.775
2530.14734	12307.675
2532.86681	12325.675
2535.58458	12316.875
2538.30065	12291.375
2541.01501	12300.675
2543.72768	12294.375
2546.43864	12296.275
2549.14791	12298.975
2551.85548	12271.075
2554.56136	12243.775
2557.26554	12256.975
2559.96803	12254.075
2562.66883	12288.975
2565.36794	12293.175
2568.06536	12286.375
2570.7611	12242.775
2573.45514	12241.175
2576.14751	12232.875
2578.83819	12247.175
2581.52719	12259.075
2584.21451	12259.175
2586.90015	12240.975
2589.58411	12232.275
2592.2664	12239.675
2594.94701	12223.475
2597.62594	12210.875
2600.30321	12214.675
2602.9788	12232.175
2605.65273	12186.175
2608.32498	12210.875
2610.99557	12189.875
2613.66449	12232.975
2616.33175	12217.975
2618.99734	12215.175
2621.66128	12195.975
2624.32355	12173.775
2626.98416	12220.275
2629.64311	12212.275
2632.30041	12192.575
2634.95605	12156.375
2637.61004	12123.075
2640.26238	12131.875
2642.91306	12132.275
2645.56209	12126.675
2648.20948	12132.275
2650.85521	12140.775
2653.4993	12136.275
2656.14175	12135.875
2658.78255	12144.175
2661.42171	12142.675
2664.05923	12153.375
2666.6951	12189.775
2669.32934	12166.775
2671.96194	12193.775
2674.59291	12180.775
2677.22224	12169.775
2679.84993	12188.275
2682.476	12134.575
2685.10043	12142.975
2687.72324	12105.975
2690.34441	12146.475
2692.96396	12128.075
2695.58188	12134.175
2698.19818	12110.875
2700.81285	12117.775
2703.4259	12140.575
2706.03733	12117.175
2708.64714	12095.775
2711.25533	12134.875
2713.86191	12166.575
2716.46687	12171.675
2719.07021	12193.175
2721.67194	12175.075
2724.27206	12185.975
2726.87057	12219.675
2729.46747	12214.075
2732.06276	12209.075
2734.65644	12210.375
2737.24852	12243.675
2739.83899	12234.075
2742.42786	12198.175
2745.01513	12178.275
2747.60079	12179.575
2750.18486	12192.375
2752.76733	12190.175
2755.3482	12184.575
2757.92747	12199.775
2760.50515	12194.675
2763.08123	12186.375
2765.65573	12190.575
2768.22863	12170.175
2770.79994	12156.575
2773.36967	12178.675
2775.9378	12198.475
2778.50435	12173.275
2781.06932	12156.975
2783.6327	12168.075
2786.1945	12157.175
2788.75471	12152.975
2791.31335	12139.775
2793.87041	12137.675
2796.42589	12068.975
2798.97979	12099.875
2801.53212	12079.575
2804.08288	12044.575
2806.63206	12060.675
2809.17967	12020.675
2811.72571	11980.675
2814.27018	11970.075
2816.81308	11970.675
2819.35442	11965.475
2821.89419	11954.575
2824.43239	11933.575
2826.96904	11942.775
2829.50412	11948.975
2832.03763	11933.975
2834.56959	11921.375
2837.1	11914.075
2839.62884	11930.675
2842.15613	11910.575
2844.68186	11944.675
2847.20604	11971.375
2849.72867	11979.175
2852.24974	11967.475
2854.76927	11944.075
2857.28724	11940.875
2859.80367	11932.175
2862.31855	11910.175
2864.83189	11897.975
2867.34368	11906.675
2869.85393	11929.875
2872.36264	11899.575
2874.8698	11889.175
2877.37543	11882.575
2879.87952	11899.175
2882.38207	11875.875
2884.88308	11916.775
2887.38256	11917.975
2889.88051	11937.775
2892.37692	11924.375
2894.8718	11940.175
2897.36515	11968.175
2899.85698	11966.975
2902.34727	11978.275
2904.83604	12000.875
2907.32328	12045.275
2909.809	12034.275
2912.29319	12014.875
2914.77587	12049.675
2917.25702	12018.275
2919.73665	12015.975
2922.21476	12029.275
2924.69136	12012.875
2927.16644	12007.075
2929.64	11977.575
2932.11205	11988.475
2934.58258	11941.775
2937.05161	11946.075
2939.51912	11959.275
2941.98513	11936.875
2944.44962	11885.475
2946.91261	11880.375
2949.37409	11899.675
2951.83407	11879.675
2954.29254	11886.875
2956.74951	11865.675
2959.20498	11849.075
2961.65895	11850.075
2964.11142	11861.875
2966.56239	11830.475
2969.01186	11804.975
2971.45984	11821.775
2973.90632	11764.775
2976.35131	11768.975
2978.7948	11742.375
2981.23681	11708.575
2983.67732	11688.175
2986.11635	11643.275
2988.55388	11630.975
2990.98993	11620.275
2993.4245	11622.475
2995.85758	11604.875
2998.28917	11584.575
3000.71928	11525.375
3003.14791	11518.875
3005.57506	11511.475
3008.00073	11520.875
3010.42493	11491.875
3012.84764	11504.375
3015.26888	11484.175
3017.68865	11458.675
3020.10694	11463.175
3022.52376	11433.675
3024.9391	11427.775
3027.35298	11408.175
3029.76539	11427.475
3032.17632	11406.575
3034.5858	11376.275
3036.9938	11392.675
3039.40034	11383.375
3041.80542	11408.775
3044.20903	11375.075
3046.61118	11366.775
3049.01187	11329.375
3051.4111	11361.875
3053.80888	11342.075
3056.20519	11327.175
3058.60005	11304.575
3060.99345	11272.375
3063.3854	11243.775
3065.7759	11221.575
3068.16494	11233.175
3070.55254	11192.175
3072.93868	11179.575
3075.32338	11187.375
3077.70662	11136.275
3080.08842	11127.775
3082.46878	11109.175
3084.84769	11089.175
3087.22515	11090.375
3089.60118	11090.775
3091.97576	11092.475
3094.3489	11076.775
3096.72061	11133.575
3099.09087	11113.675
3101.4597	11073.175
3103.82709	11099.675
3106.19305	11079.475
3108.55757	11081.275
3110.92066	11054.675
3113.28232	11049.375
3115.64255	11030.375
3118.00134	11028.675
3120.35871	11027.175
3122.71466	11012.575
3125.06917	10961.375
3127.42226	10943.175
3129.77393	10967.075
3132.12417	10954.175
3134.47299	10951.475
3136.82039	10962.575
3139.16636	10959.575
3141.51092	10960.575
3143.85406	10988.675
3146.19579	10940.475
3148.53609	10976.275
3150.87499	10993.675
3153.21246	10991.175
3155.54853	10997.575
3157.88318	10989.075
3160.21642	11008.075
3162.54826	10998.375
3164.87868	11024.775
3167.2077	10996.175
3169.5353	11019.775
3171.86151	11010.975
3174.18631	11005.275
3176.5097	10999.875
3178.83169	10992.675
3181.15228	10987.175
3183.47147	10989.475
3185.78926	10992.975
3188.10565	10949.075
3190.42065	10949.775
3192.73424	10944.375
3195.04645	10940.475
3197.35725	10958.775
3199.66667	10932.975
3201.97469	10961.075
3204.28132	10944.175
3206.58656	10976.175
3208.8904	10950.775
3211.19287	10956.075
3213.49394	10992.975
3215.79363	10997.075
3218.09193	10971.875
3220.38884	10984.775
3222.68438	10981.175
3224.97853	10972.775
3227.2713	10970.175
3229.56269	10975.075
3231.8527	10970.875
3234.14133	10954.475
3236.42858	10945.175
3238.71446	10938.475
3240.99896	10934.775
3243.28209	10937.375
3245.56384	10875.275
3247.84423	10902.875
3250.12324	10877.375
3252.40088	10892.175
3254.67715	10890.475
3256.95205	10858.975
3259.22558	10901.775
3261.49775	10859.975
3263.76855	10856.375
3266.03799	10826.375
3268.30606	10817.375
3270.57277	10819.575
3272.83812	10773.775
3275.10211	10775.475
3277.36474	10733.175
3279.62601	10770.275
3281.88593	10726.375
3284.14448	10761.075
3286.40168	10769.675
3288.65753	10782.475
3290.91202	10763.775
3293.16516	10720.975
3295.41695	10689.375
3297.66738	10644.275
3299.91647	10579.575
3302.16421	10518.475
3304.4106	10478.075
3306.65564	10457.075
3308.89933	10381.875
3311.14169	10320.775
3313.38269	10248.475
3315.62236	10169.675
3317.86068	10102.175
3320.09766	10056.675
3322.3333	9996.275
3324.5676	9958.275
3326.80056	9798.175
3329.03219	9730.175
3331.26248	2.175
3333.49143	0.675
3335.71905	-0.625
