Data from AgNPs_FTO_APTES_UA_1uM_CRN_0uM_R6G_10uM_NaF_0.1M_Addition_RamanShift__9__11-16-09-414.txt Node

Date: Thu Jan 27 11:16:09 GMT 2022
User: TCL
Spectrometer: QEP01345
Trigger mode: 4
Integration Time (sec): 7.000000E0
Scans to average: 10
Electric dark correction enabled: true
Nonlinearity correction enabled: false
Boxcar width: 0
XAxis mode: Raman Shifts
Number of Pixels in Spectrum: 1044
>>>>>Begin Spectral Data<<<<<
46.04893	-0.525
50.45542	0.875
54.85868	-0.325
59.25871	-0.825
63.6555	28.375
68.04907	32.275
72.43941	32.775
76.82654	37.075
81.21044	37.175
85.59113	36.075
89.96862	38.875
94.34289	39.675
98.71396	42.675
103.08183	41.575
107.4465	47.975
111.80798	46.475
116.16626	42.875
120.52136	49.875
124.87327	47.975
129.222	47.575
133.56755	48.275
137.90993	50.675
142.24913	53.975
146.58517	60.575
150.91804	66.175
155.24774	76.675
159.57429	88.075
163.89768	112.275
168.21792	143.375
172.53501	187.675
176.84895	252.075
181.15975	346.075
185.46741	479.975
189.77193	660.075
194.07331	893.175
198.37157	1145.375
202.6667	1431.775
206.9587	1700.875
211.24758	1964.075
215.53334	2239.175
219.81599	2513.175
224.09553	2796.475
228.37195	3100.875
232.64527	3445.475
236.91549	3826.375
241.18261	4180.575
245.44663	4529.675
249.70755	4840.275
253.96539	5129.375
258.22014	5355.375
262.4718	5544.275
266.72039	5654.875
270.96589	5697.575
275.20832	5667.975
279.44768	5587.875
283.68397	5483.675
287.91719	5365.375
292.14735	5285.375
296.37445	5265.475
300.59849	5274.075
304.81948	5329.175
309.03742	5370.375
313.25231	5345.275
317.46415	5231.875
321.67296	5109.275
325.87872	4985.975
330.08145	4932.475
334.28114	4919.875
338.47781	4966.375
342.67145	5026.075
346.86207	5097.375
351.04966	5216.175
355.23424	5339.775
359.4158	5491.175
363.59435	5572.775
367.76989	5634.475
371.94243	5653.475
376.11196	5659.875
380.27849	5688.475
384.44203	5678.375
388.60257	5659.675
392.76012	5647.475
396.91468	5675.175
401.06626	5722.375
405.21485	5752.375
409.36047	5739.275
413.50311	5620.175
417.64277	5515.075
421.77947	5443.075
425.9132	5387.575
430.04396	5414.275
434.17176	5440.475
438.2966	5481.475
442.41849	5569.275
446.53742	5626.275
450.6534	5694.075
454.76644	5752.275
458.87653	5747.575
462.98368	5762.975
467.08789	5715.775
471.18916	5693.175
475.2875	5646.575
479.38291	5619.475
483.4754	5594.675
487.56496	5565.075
491.6516	5550.375
495.73531	5565.275
499.81612	5573.975
503.89401	5577.675
507.96899	5639.875
512.04106	5673.275
516.11023	5723.875
520.1765	5770.075
524.23987	5744.575
528.30034	5726.175
532.35792	5684.475
536.41261	5635.475
540.46441	5598.475
544.51333	5588.275
548.55936	5574.975
552.60252	5574.775
556.64279	5621.375
560.6802	5638.875
564.71473	5666.575
568.7464	5697.475
572.7752	5731.075
576.80114	5656.475
580.82422	5559.975
584.84444	5507.075
588.86181	5553.175
592.87633	5585.875
596.888	5631.575
600.89682	5695.375
604.9028	5899.875
608.90594	6483.975
612.90624	7400.475
616.90371	7497.375
620.89834	6385.775
624.89015	5731.975
628.87913	5566.075
632.86528	5574.675
636.84862	5620.675
640.82913	5612.875
644.80683	5554.975
648.78172	5465.575
652.75379	5473.975
656.72306	5534.575
660.68952	5649.675
664.65319	5632.975
668.61405	5532.475
672.57211	5508.175
676.52738	5515.975
680.47986	5536.775
684.42955	5515.675
688.37646	5474.075
692.32058	5446.975
696.26192	5439.375
700.20048	5441.675
704.13626	5424.375
708.06928	5416.575
711.99952	5441.775
715.927	5436.775
719.85171	5461.375
723.77365	5477.375
727.69284	5469.175
731.60928	5464.775
735.52295	5443.475
739.43388	5434.275
743.34206	5442.775
747.24749	5447.175
751.15017	5450.075
755.05012	5453.475
758.94733	5526.975
762.8418	5642.175
766.73354	5964.475
770.62254	6408.875
774.50882	6685.675
778.39237	6604.675
782.27321	6190.675
786.15132	5761.775
790.02671	5500.775
793.89938	5361.075
797.76935	5354.175
801.6366	5334.375
805.50115	5311.875
809.36299	5288.475
813.22213	5250.175
817.07857	5223.575
820.93231	5196.375
824.78336	5170.575
828.63172	5166.875
832.47738	5194.275
836.32036	5207.275
840.16066	5189.875
843.99827	5168.875
847.8332	5173.675
851.66546	5137.775
855.49504	5119.675
859.32195	5107.175
863.1462	5087.475
866.96777	5049.175
870.78668	5061.375
874.60293	5059.675
878.41652	5027.875
882.22745	5028.275
886.03573	5047.775
889.84136	5039.175
893.64433	5026.675
897.44466	5043.675
901.24235	5028.375
905.0374	5027.975
908.8298	5043.475
912.61957	5065.375
916.40671	5097.075
920.19121	5137.175
923.97308	5160.975
927.75233	5220.275
931.52895	5240.175
935.30295	5212.875
939.07433	5147.975
942.84309	5093.975
946.60924	5054.075
950.37278	5022.575
954.13371	4966.475
957.89203	4921.275
961.64774	4868.975
965.40086	4833.275
969.15137	4791.075
972.89929	4776.975
976.64461	4766.575
980.38733	4746.075
984.12747	4738.975
987.86502	4748.475
991.59999	4752.075
995.33237	4764.775
999.06217	4817.975
1002.78939	4853.075
1006.51404	4872.075
1010.23611	4913.875
1013.95561	4932.275
1017.67255	4932.975
1021.38692	4917.175
1025.09872	4879.075
1028.80796	4843.075
1032.51465	4813.975
1036.21877	4802.875
1039.92035	4795.175
1043.61937	4812.875
1047.31584	4833.975
1051.00976	4830.375
1054.70114	4844.475
1058.38998	4827.775
1062.07627	4813.975
1065.76003	4791.675
1069.44126	4769.675
1073.11995	4735.175
1076.79611	4763.975
1080.46974	4762.975
1084.14085	4777.575
1087.80943	4821.875
1091.47549	4810.575
1095.13903	4758.275
1098.80005	4678.775
1102.45857	4591.475
1106.11456	4561.675
1109.76805	4537.175
1113.41903	4576.975
1117.06751	4625.175
1120.71348	4693.075
1124.35696	4769.775
1127.99793	4839.975
1131.63641	4885.975
1135.2724	4782.075
1138.90589	4627.975
1142.5369	4519.775
1146.16542	4462.975
1149.79145	4404.975
1153.415	4353.975
1157.03607	4350.375
1160.65467	4357.275
1164.27079	4437.475
1167.88443	4504.975
1171.49561	4689.275
1175.10432	4973.375
1178.71056	5391.875
1182.31434	5771.275
1185.91565	5911.875
1189.51451	5828.375
1193.11091	5601.775
1196.70485	5328.275
1200.29634	5075.275
1203.88538	4888.875
1207.47197	4699.975
1211.05612	4504.475
1214.63782	4408.175
1218.21708	4391.975
1221.79391	4396.575
1225.36829	4441.575
1228.94024	4464.375
1232.50976	4454.075
1236.07685	4441.575
1239.6415	4411.075
1243.20374	4394.075
1246.76355	4362.675
1250.32093	4369.975
1253.8759	4372.175
1257.42845	4426.475
1260.97859	4468.175
1264.52631	4520.475
1268.07163	4575.975
1271.61453	4672.475
1275.15503	4699.875
1278.69312	4740.275
1282.22882	4742.075
1285.76211	4795.775
1289.29301	4885.675
1292.82151	4984.075
1296.34761	5079.475
1299.87133	5201.075
1303.39266	5383.375
1306.9116	5702.275
1310.42815	6079.175
1313.94233	6312.975
1317.45412	6206.875
1320.96354	5861.275
1324.47058	5467.075
1327.97525	5152.875
1331.47754	4987.975
1334.97747	4940.175
1338.47502	4962.475
1341.97022	5018.375
1345.46305	5151.475
1348.95352	5372.775
1352.44163	5731.475
1355.92738	6189.675
1359.41078	6865.175
1362.89183	7637.875
1366.37053	7769.475
1369.84688	7038.275
1373.32088	6057.675
1376.79254	5409.175
1380.26186	5081.375
1383.72883	4927.775
1387.19347	4812.575
1390.65578	4705.775
1394.11575	4614.075
1397.57339	4531.875
1401.0287	4465.675
1404.48168	4439.075
1407.93234	4413.175
1411.38068	4384.175
1414.82669	4374.175
1418.27039	4373.375
1421.71177	4354.475
1425.15083	4331.775
1428.58758	4293.775
1432.02203	4277.775
1435.45416	4286.475
1438.88399	4315.775
1442.31151	4311.075
1445.73673	4286.475
1449.15965	4270.475
1452.58027	4243.975
1455.9986	4198.075
1459.41463	4163.175
1462.82837	4140.875
1466.23982	4160.175
1469.64898	4202.975
1473.05586	4247.375
1476.46045	4262.575
1479.86276	4288.575
1483.26279	4321.275
1486.66054	4363.375
1490.05602	4415.175
1493.44922	4503.675
1496.84016	4667.775
1500.22882	4967.275
1503.61521	5397.175
1506.99934	5950.775
1510.38121	6457.575
1513.76081	6741.675
1517.13816	6505.675
1520.51324	5859.575
1523.88607	5215.675
1527.25665	4753.175
1530.62498	4528.375
1533.99105	4387.375
1537.35488	4312.575
1540.71647	4249.975
1544.07581	4202.475
1547.4329	4194.975
1550.78776	4197.175
1554.14038	4221.575
1557.49077	4243.275
1560.83892	4278.675
1564.18484	4342.975
1567.52853	4425.375
1570.86999	4525.475
1574.20922	4637.775
1577.54624	4660.175
1580.88103	4552.075
1584.2136	4309.375
1587.54395	4123.975
1590.87208	4030.475
1594.19801	4047.075
1597.52172	4158.375
1600.84321	4242.675
1604.16251	4201.175
1607.47959	4084.275
1610.79447	3945.675
1614.10715	3798.875
1617.41763	3690.575
1620.7259	3626.575
1624.03199	3578.675
1627.33587	3569.175
1630.63757	3589.175
1633.93707	3621.875
1637.23439	3680.775
1640.52951	3832.675
1643.82246	4075.675
1647.11321	4383.275
1650.40179	4664.675
1653.68819	4662.875
1656.97241	4288.275
1660.25446	3832.975
1663.53433	3479.575
1666.81203	3286.975
1670.08756	3164.275
1673.36092	3088.175
1676.63211	3058.975
1679.90115	3016.375
1683.16801	2980.175
1686.43272	2948.175
1689.69527	2901.875
1692.95567	2848.975
1696.2139	2773.775
1699.46999	2726.775
1702.72392	2683.175
1705.97571	2723.675
1709.22535	2747.875
1712.47284	2777.575
1715.71819	2797.175
1718.96139	2785.875
1722.20246	2787.175
1725.44139	2782.775
1728.67818	2758.575
1731.91284	2747.475
1735.14537	2720.375
1738.37576	2700.875
1741.60403	2689.875
1744.83017	2661.075
1748.05418	2659.075
1751.27607	2630.475
1754.49584	2614.675
1757.71349	2568.175
1760.92903	2532.075
1764.14244	2530.675
1767.35375	2513.875
1770.56294	2487.875
1773.77002	2492.475
1776.97499	2515.575
1780.17785	2522.775
1783.37861	2535.375
1786.57727	2542.675
1789.77382	2541.675
1792.96828	2544.375
1796.16064	2514.175
1799.3509	2509.675
1802.53907	2512.875
1805.72514	2490.275
1808.90913	2490.275
1812.09102	2473.175
1815.27083	2470.375
1818.44856	2472.175
1821.6242	2447.275
1824.79776	2443.475
1827.96924	2438.075
1831.13864	2438.975
1834.30597	2425.575
1837.47122	2415.275
1840.6344	2405.575
1843.7955	2410.675
1846.95454	2401.175
1850.11151	2395.175
1853.26642	2389.175
1856.41926	2377.975
1859.57004	2375.175
1862.71876	2380.275
1865.86542	2367.775
1869.01003	2370.575
1872.15258	2360.775
1875.29308	2347.575
1878.43152	2343.675
1881.56792	2353.375
1884.70227	2338.475
1887.83457	2327.675
1890.96482	2326.775
1894.09304	2307.375
1897.21921	2317.075
1900.34335	2297.575
1903.46544	2307.775
1906.58551	2303.575
1909.70353	2299.975
1912.81953	2295.475
1915.93349	2290.275
1919.04543	2280.575
1922.15534	2273.775
1925.26322	2269.875
1928.36908	2252.775
1931.47292	2251.775
1934.57473	2239.175
1937.67453	2245.075
1940.77232	2219.275
1943.86808	2209.075
1946.96184	2205.475
1950.05358	2198.575
1953.14331	2180.075
1956.23103	2177.175
1959.31675	2169.575
1962.40046	2153.675
1965.48217	2157.575
1968.56188	2136.375
1971.63959	2133.375
1974.7153	2135.375
1977.78901	2118.275
1980.86073	2112.475
1983.93046	2103.375
1986.99819	2098.675
1990.06394	2079.675
1993.1277	2079.675
1996.18947	2070.575
1999.24925	2060.275
2002.30706	2042.775
2005.36288	2044.975
2008.41672	2030.975
2011.46859	2024.275
2014.51848	2008.375
2017.56639	2005.575
2020.61233	1992.475
2023.6563	1979.475
2026.6983	1979.575
2029.73833	1981.075
2032.7764	1970.075
2035.8125	1958.375
2038.84664	1953.475
2041.87881	1954.075
2044.90903	1938.475
2047.93729	1939.375
2050.96359	1933.975
2053.98794	1924.175
2057.01034	1917.475
2060.03078	1915.875
2063.04927	1913.675
2066.06582	1911.675
2069.08042	1905.575
2072.09307	1901.875
2075.10378	1909.375
2078.11255	1891.775
2081.11938	1898.375
2084.12426	1899.075
2087.12722	1899.975
2090.12824	1897.075
2093.12732	1887.875
2096.12447	1888.175
2099.11969	1887.975
2102.11299	1882.275
2105.10435	1868.375
2108.09379	1875.375
2111.08131	1870.275
2114.0669	1858.975
2117.05057	1874.075
2120.03233	1872.575
2123.01216	1862.075
2125.99008	1872.575
2128.96609	1876.675
2131.94018	1861.875
2134.91236	1856.175
2137.88263	1858.375
2140.851	1847.575
2143.81746	1854.475
2146.78201	1851.375
2149.74466	1852.475
2152.7054	1839.975
2155.66425	1844.175
2158.6212	1848.575
2161.57625	1840.675
2164.52941	1836.975
2167.48067	1825.075
2170.43004	1826.575
2173.37752	1823.275
2176.32311	1823.675
2179.26681	1827.975
2182.20863	1817.275
2185.14856	1814.675
2188.08661	1817.975
2191.02278	1816.875
2193.95707	1803.275
2196.88948	1802.875
2199.82001	1795.775
2202.74867	1792.175
2205.67545	1791.375
2208.60037	1786.775
2211.52341	1788.275
2214.44458	1768.975
2217.36388	1767.475
2220.28132	1761.775
2223.1969	1746.375
2226.11061	1746.975
2229.02246	1739.875
2231.93245	1737.275
2234.84058	1730.175
2237.74686	1736.275
2240.65128	1735.675
2243.55385	1725.275
2246.45456	1705.975
2249.35343	1703.675
2252.25044	1706.675
2255.14561	1699.475
2258.03893	1688.875
2260.93041	1684.575
2263.82004	1687.975
2266.70783	1692.175
2269.59378	1684.475
2272.4779	1671.475
2275.36017	1663.075
2278.24061	1652.975
2281.11922	1658.475
2283.996	1649.775
2286.87094	1642.875
2289.74405	1623.475
2292.61534	1630.375
2295.4848	1627.075
2298.35243	1620.975
2301.21824	1618.075
2304.08223	1615.375
2306.94439	1611.475
2309.80474	1614.675
2312.66327	1599.175
2315.51999	1600.575
2318.37489	1595.375
2321.22797	1590.275
2324.07925	1594.275
2326.92871	1586.475
2329.77637	1581.975
2332.62222	1568.275
2335.46626	1581.675
2338.3085	1570.175
2341.14893	1566.975
2343.98756	1554.075
2346.8244	1553.875
2349.65943	1558.575
2352.49267	1548.075
2355.32411	1554.075
2358.15376	1543.875
2360.98161	1540.675
2363.80768	1546.975
2366.63195	1553.675
2369.45444	1551.375
2372.27514	1544.075
2375.09405	1540.975
2377.91118	1535.775
2380.72652	1526.675
2383.54009	1515.775
2386.35187	1512.875
2389.16188	1506.975
2391.97011	1501.175
2394.77657	1493.475
2397.58125	1492.375
2400.38416	1476.875
2403.18529	1484.275
2405.98466	1467.975
2408.78226	1466.775
2411.57809	1477.875
2414.37216	1468.475
2417.16446	1464.175
2419.955	1460.675
2422.74378	1456.275
2425.5308	1448.975
2428.31606	1443.875
2431.09956	1445.675
2433.88131	1433.175
2436.6613	1449.175
2439.43954	1438.775
2442.21603	1440.375
2444.99077	1442.675
2447.76377	1434.575
2450.53501	1434.975
2453.30451	1426.275
2456.07226	1430.975
2458.83827	1410.575
2461.60254	1424.175
2464.36507	1418.275
2467.12586	1401.875
2469.88492	1410.075
2472.64224	1405.475
2475.39782	1388.375
2478.15167	1391.275
2480.90379	1397.775
2483.65417	1396.275
2486.40283	1399.475
2489.14976	1402.075
2491.89497	1395.775
2494.63845	1384.875
2497.3802	1378.075
2500.12024	1374.775
2502.85855	1383.075
2505.59514	1371.175
2508.33002	1373.575
2511.06318	1364.775
2513.79462	1362.975
2516.52435	1355.675
2519.25237	1349.475
2521.97867	1348.275
2524.70327	1347.875
2527.42616	1335.475
2530.14734	1329.775
2532.86681	1333.075
2535.58458	1329.275
2538.30065	1329.075
2541.01501	1329.375
2543.72768	1320.275
2546.43864	1307.475
2549.14791	1317.575
2551.85548	1313.875
2554.56136	1313.975
2557.26554	1305.875
2559.96803	1301.375
2562.66883	1298.875
2565.36794	1296.775
2568.06536	1295.175
2570.7611	1286.975
2573.45514	1289.775
2576.14751	1281.075
2578.83819	1279.575
2581.52719	1281.975
2584.21451	1273.175
2586.90015	1267.775
2589.58411	1261.575
2592.2664	1265.775
2594.94701	1257.575
2597.62594	1254.175
2600.30321	1249.175
2602.9788	1247.675
2605.65273	1247.175
2608.32498	1243.475
2610.99557	1243.775
2613.66449	1243.575
2616.33175	1233.675
2618.99734	1238.175
2621.66128	1237.375
2624.32355	1231.875
2626.98416	1229.275
2629.64311	1221.675
2632.30041	1234.075
2634.95605	1218.075
2637.61004	1222.575
2640.26238	1217.375
2642.91306	1212.275
2645.56209	1206.075
2648.20948	1210.175
2650.85521	1214.875
2653.4993	1212.375
2656.14175	1223.375
2658.78255	1218.275
2661.42171	1219.675
2664.05923	1213.975
2666.6951	1218.375
2669.32934	1218.475
2671.96194	1224.575
2674.59291	1213.275
2677.22224	1216.575
2679.84993	1211.675
2682.476	1215.675
2685.10043	1204.175
2687.72324	1204.875
2690.34441	1206.675
2692.96396	1217.775
2695.58188	1220.475
2698.19818	1212.075
2700.81285	1208.975
2703.4259	1198.675
2706.03733	1161.175
2708.64714	1180.375
2711.25533	1205.875
2713.86191	1219.475
2716.46687	1215.775
2719.07021	1239.775
2721.67194	1232.775
2724.27206	1241.575
2726.87057	1248.675
2729.46747	1249.775
2732.06276	1250.975
2734.65644	1259.475
2737.24852	1260.175
2739.83899	1269.775
2742.42786	1274.875
2745.01513	1269.375
2747.60079	1267.675
2750.18486	1262.975
2752.76733	1264.875
2755.3482	1278.575
2757.92747	1283.575
2760.50515	1280.575
2763.08123	1273.975
2765.65573	1275.375
2768.22863	1275.875
2770.79994	1275.775
2773.36967	1274.675
2775.9378	1274.475
2778.50435	1285.175
2781.06932	1278.675
2783.6327	1272.375
2786.1945	1280.975
2788.75471	1277.375
2791.31335	1271.275
2793.87041	1284.075
2796.42589	1281.175
2798.97979	1284.575
2801.53212	1278.975
2804.08288	1285.775
2806.63206	1279.175
2809.17967	1279.575
2811.72571	1283.275
2814.27018	1276.275
2816.81308	1274.575
2819.35442	1276.475
2821.89419	1279.975
2824.43239	1281.475
2826.96904	1273.475
2829.50412	1281.075
2832.03763	1276.975
2834.56959	1280.375
2837.1	1286.975
2839.62884	1291.875
2842.15613	1287.875
2844.68186	1317.375
2847.20604	1335.375
2849.72867	1360.275
2852.24974	1362.275
2854.76927	1364.375
2857.28724	1355.975
2859.80367	1373.175
2862.31855	1381.175
2864.83189	1395.375
2867.34368	1394.475
2869.85393	1409.575
2872.36264	1415.475
2874.8698	1418.975
2877.37543	1420.075
2879.87952	1424.275
2882.38207	1436.975
2884.88308	1429.775
2887.38256	1431.275
2889.88051	1426.375
2892.37692	1433.275
2894.8718	1432.075
2897.36515	1428.475
2899.85698	1424.375
2902.34727	1423.275
2904.83604	1428.675
2907.32328	1431.575
2909.809	1435.775
2912.29319	1437.375
2914.77587	1437.875
2917.25702	1438.675
2919.73665	1448.075
2922.21476	1454.575
2924.69136	1455.075
2927.16644	1450.575
2929.64	1447.975
2932.11205	1442.775
2934.58258	1430.075
2937.05161	1418.475
2939.51912	1412.275
2941.98513	1384.975
2944.44962	1363.375
2946.91261	1337.675
2949.37409	1316.775
2951.83407	1288.575
2954.29254	1275.175
2956.74951	1265.375
2959.20498	1243.475
2961.65895	1222.875
2964.11142	1208.775
2966.56239	1183.775
2969.01186	1172.575
2971.45984	1162.875
2973.90632	1155.675
2976.35131	1141.275
2978.7948	1127.975
2981.23681	1118.875
2983.67732	1115.075
2986.11635	1104.075
2988.55388	1095.075
2990.98993	1092.375
2993.4245	1078.875
2995.85758	1080.875
2998.28917	1068.575
3000.71928	1060.275
3003.14791	1053.375
3005.57506	1055.375
3008.00073	1045.175
3010.42493	1045.175
3012.84764	1044.475
3015.26888	1040.575
3017.68865	1045.175
3020.10694	1041.375
3022.52376	1034.075
3024.9391	1027.075
3027.35298	1037.075
3029.76539	1034.675
3032.17632	1030.775
3034.5858	1031.075
3036.9938	1032.075
3039.40034	1023.275
3041.80542	1036.075
3044.20903	1026.575
3046.61118	1030.075
3049.01187	1025.775
3051.4111	1024.975
3053.80888	1027.175
3056.20519	1023.175
3058.60005	1023.275
3060.99345	1019.875
3063.3854	1028.575
3065.7759	1023.775
3068.16494	1028.475
3070.55254	1020.275
3072.93868	1029.775
3075.32338	1029.075
3077.70662	1031.875
3080.08842	1026.975
3082.46878	1030.275
3084.84769	1036.175
3087.22515	1034.475
3089.60118	1033.075
3091.97576	1042.975
3094.3489	1047.775
3096.72061	1047.375
3099.09087	1049.175
3101.4597	1050.075
3103.82709	1053.775
3106.19305	1056.975
3108.55757	1060.075
3110.92066	1062.575
3113.28232	1063.175
3115.64255	1065.775
3118.00134	1068.075
3120.35871	1070.075
3122.71466	1075.175
3125.06917	1078.375
3127.42226	1083.175
3129.77393	1084.175
3132.12417	1091.675
3134.47299	1091.975
3136.82039	1107.275
3139.16636	1104.575
3141.51092	1116.975
3143.85406	1115.075
3146.19579	1116.875
3148.53609	1125.775
3150.87499	1139.575
3153.21246	1138.475
3155.54853	1145.175
3157.88318	1158.775
3160.21642	1157.475
3162.54826	1166.375
3164.87868	1169.675
3167.2077	1167.375
3169.5353	1176.575
3171.86151	1176.975
3174.18631	1178.375
3176.5097	1178.575
3178.83169	1196.375
3181.15228	1192.875
3183.47147	1197.375
3185.78926	1200.175
3188.10565	1202.075
3190.42065	1208.975
3192.73424	1201.775
3195.04645	1213.375
3197.35725	1213.475
3199.66667	1212.275
3201.97469	1220.175
3204.28132	1228.675
3206.58656	1233.875
3208.8904	1238.875
3211.19287	1246.275
3213.49394	1251.175
3215.79363	1251.175
3218.09193	1257.275
3220.38884	1246.575
3222.68438	1239.375
3224.97853	1246.975
3227.2713	1245.675
3229.56269	1254.775
3231.8527	1265.275
3234.14133	1259.575
3236.42858	1265.375
3238.71446	1266.475
3240.99896	1255.275
3243.28209	1268.675
3245.56384	1269.775
3247.84423	1274.675
3250.12324	1273.975
3252.40088	1268.875
3254.67715	1268.675
3256.95205	1275.175
3259.22558	1274.175
3261.49775	1285.075
3263.76855	1287.975
3266.03799	1286.175
3268.30606	1281.075
3270.57277	1285.675
3272.83812	1286.775
3275.10211	1280.375
3277.36474	1282.575
3279.62601	1275.475
3281.88593	1275.675
3284.14448	1281.075
3286.40168	1273.075
3288.65753	1272.375
3290.91202	1268.875
3293.16516	1261.775
3295.41695	1254.275
3297.66738	1248.975
3299.91647	1239.475
3302.16421	1227.175
3304.4106	1231.475
3306.65564	1222.575
3308.89933	1216.475
3311.14169	1202.175
3313.38269	1200.475
3315.62236	1180.875
3317.86068	1178.675
3320.09766	1177.375
3322.3333	1166.475
3324.5676	1161.275
3326.80056	1131.775
3329.03219	1132.975
3331.26248	1.275
3333.49143	0.175
3335.71905	-0.625
