Data from AgNPs_FTO_APTES_UA_1uM_CRN_100uM_R6G_10uM_NaF_0.1M_Addition_RamanShift__3__16-24-09-766.txt Node

Date: Thu Jan 27 16:24:09 GMT 2022
User: TCL
Spectrometer: QEP01345
Trigger mode: 4
Integration Time (sec): 7.000000E0
Scans to average: 10
Electric dark correction enabled: true
Nonlinearity correction enabled: false
Boxcar width: 0
XAxis mode: Raman Shifts
Number of Pixels in Spectrum: 1044
>>>>>Begin Spectral Data<<<<<
46.04893	0.5375
50.45542	1.6375
54.85868	-1.7625
59.25871	-2.6625
63.6555	47.6375
68.04907	49.0375
72.43941	50.2375
76.82654	54.0375
81.21044	55.4375
85.59113	53.8375
89.96862	62.7375
94.34289	61.2375
98.71396	63.1375
103.08183	62.7375
107.4465	66.7375
111.80798	67.3375
116.16626	65.9375
120.52136	75.3375
124.87327	71.8375
129.222	69.7375
133.56755	75.5375
137.90993	78.2375
142.24913	87.7375
146.58517	100.0375
150.91804	110.6375
155.24774	125.3375
159.57429	157.8375
163.89768	189.3375
168.21792	247.0375
172.53501	333.5375
176.84895	456.3375
181.15975	639.3375
185.46741	897.8375
189.77193	1228.6375
194.07331	1643.7375
198.37157	2115.4375
202.6667	2626.8375
206.9587	3114.7375
211.24758	3598.9375
215.53334	4084.3375
219.81599	4606.2375
224.09553	5153.0375
228.37195	5763.8375
232.64527	6456.5375
236.91549	7141.8375
241.18261	7860.1375
245.44663	8550.3375
249.70755	9161.5375
253.96539	9738.6375
258.22014	10163.1375
262.4718	10576.3375
266.72039	10842.9375
270.96589	10996.3375
275.20832	11035.1375
279.44768	10975.9375
283.68397	10885.5375
287.91719	10787.2375
292.14735	10739.2375
296.37445	10741.0375
300.59849	10762.2375
304.81948	10804.7375
309.03742	10793.8375
313.25231	10697.7375
317.46415	10506.8375
321.67296	10282.5375
325.87872	10072.2375
330.08145	9958.2375
334.28114	9929.3375
338.47781	9998.3375
342.67145	10102.7375
346.86207	10262.8375
351.04966	10421.3375
355.23424	10595.3375
359.4158	10721.2375
363.59435	10888.5375
367.76989	10993.7375
371.94243	11053.0375
376.11196	11093.5375
380.27849	11161.0375
384.44203	11238.8375
388.60257	11304.8375
392.76012	11382.8375
396.91468	11555.2375
401.06626	11730.5375
405.21485	11834.6375
409.36047	11791.8375
413.50311	11666.9375
417.64277	11569.9375
421.77947	11564.4375
425.9132	11626.8375
430.04396	11660.6375
434.17176	11713.5375
438.2966	11780.0375
442.41849	11938.4375
446.53742	12218.2375
450.6534	12536.4375
454.76644	12760.0375
458.87653	12857.3375
462.98368	12834.1375
467.08789	12714.9375
471.18916	12574.6375
475.2875	12469.9375
479.38291	12438.1375
483.4754	12357.2375
487.56496	12245.8375
491.6516	12056.6375
495.73531	11891.5375
499.81612	11805.4375
503.89401	11819.0375
507.96899	11868.8375
512.04106	11843.1375
516.11023	11782.3375
520.1765	11705.2375
524.23987	11566.9375
528.30034	11499.4375
532.35792	11392.6375
536.41261	11292.3375
540.46441	11202.1375
544.51333	11176.4375
548.55936	11273.7375
552.60252	11521.2375
556.64279	11763.6375
560.6802	11944.0375
564.71473	12044.0375
568.7464	12193.5375
572.7752	12455.3375
576.80114	12756.1375
580.82422	13029.7375
584.84444	13371.6375
588.86181	13787.0375
592.87633	14048.8375
596.888	13966.4375
600.89682	13566.4375
604.9028	13523.1375
608.90594	14233.3375
612.90624	15088.4375
616.90371	14392.1375
620.89834	12513.0375
624.89015	11659.5375
628.87913	11555.7375
632.86528	11620.5375
636.84862	11546.9375
640.82913	11407.2375
644.80683	11171.5375
648.78172	11067.7375
652.75379	11022.5375
656.72306	11151.5375
660.68952	11265.1375
664.65319	11179.3375
668.61405	11055.9375
672.57211	10975.4375
676.52738	11041.2375
680.47986	11049.3375
684.42955	10990.5375
688.37646	10962.9375
692.32058	10990.0375
696.26192	11120.6375
700.20048	11270.6375
704.13626	11351.0375
708.06928	11323.2375
711.99952	11290.8375
715.927	11273.6375
719.85171	11308.6375
723.77365	11281.6375
727.69284	11176.7375
731.60928	11065.1375
735.52295	11017.5375
739.43388	11011.3375
743.34206	11005.8375
747.24749	11071.5375
751.15017	11152.1375
755.05012	11344.4375
758.94733	11595.6375
762.8418	12054.2375
766.73354	12717.7375
770.62254	13384.6375
774.50882	13548.1375
778.39237	13093.5375
782.27321	12323.9375
786.15132	11679.3375
790.02671	11312.1375
793.89938	11133.6375
797.76935	11065.0375
801.6366	11045.4375
805.50115	10996.3375
809.36299	10957.0375
813.22213	10887.2375
817.07857	10864.5375
820.93231	10806.5375
824.78336	10769.5375
828.63172	10750.3375
832.47738	10719.4375
836.32036	10766.4375
840.16066	10803.0375
843.99827	10866.0375
847.8332	10817.2375
851.66546	10776.6375
855.49504	10750.6375
859.32195	10721.5375
863.1462	10743.5375
866.96777	10694.7375
870.78668	10677.8375
874.60293	10670.2375
878.41652	10668.2375
882.22745	10686.6375
886.03573	10717.4375
889.84136	10746.8375
893.64433	10678.2375
897.44466	10673.8375
901.24235	10629.1375
905.0374	10586.4375
908.8298	10573.7375
912.61957	10586.1375
916.40671	10690.0375
920.19121	10817.8375
923.97308	10942.7375
927.75233	10945.2375
931.52895	10884.6375
935.30295	10793.2375
939.07433	10607.5375
942.84309	10477.2375
946.60924	10411.8375
950.37278	10374.8375
954.13371	10369.0375
957.89203	10331.4375
961.64774	10313.6375
965.40086	10302.9375
969.15137	10279.4375
972.89929	10261.3375
976.64461	10229.1375
980.38733	10220.5375
984.12747	10250.5375
987.86502	10296.7375
991.59999	10414.0375
995.33237	10553.1375
999.06217	10795.1375
1002.78939	11060.5375
1006.51404	11184.6375
1010.23611	11254.2375
1013.95561	11325.9375
1017.67255	11348.2375
1021.38692	11279.9375
1025.09872	11170.7375
1028.80796	11229.3375
1032.51465	11479.8375
1036.21877	11766.4375
1039.92035	11861.6375
1043.61937	11775.5375
1047.31584	11569.5375
1051.00976	11321.2375
1054.70114	11185.5375
1058.38998	11157.8375
1062.07627	11205.8375
1065.76003	11262.7375
1069.44126	11353.8375
1073.11995	11472.6375
1076.79611	11594.6375
1080.46974	11634.1375
1084.14085	11709.9375
1087.80943	11773.9375
1091.47549	11855.9375
1095.13903	11832.0375
1098.80005	11763.6375
1102.45857	11559.8375
1106.11456	11375.6375
1109.76805	11309.2375
1113.41903	11301.8375
1117.06751	11327.8375
1120.71348	11422.0375
1124.35696	11514.6375
1127.99793	11641.8375
1131.63641	11719.7375
1135.2724	11691.2375
1138.90589	11564.6375
1142.5369	11588.8375
1146.16542	11666.9375
1149.79145	11736.7375
1153.415	11828.6375
1157.03607	11983.4375
1160.65467	12272.0375
1164.27079	12761.2375
1167.88443	13380.1375
1171.49561	14032.6375
1175.10432	14809.2375
1178.71056	15817.7375
1182.31434	16731.9375
1185.91565	17230.2375
1189.51451	17150.2375
1193.11091	16748.2375
1196.70485	16206.5375
1200.29634	15698.4375
1203.88538	15349.5375
1207.47197	15158.1375
1211.05612	14893.9375
1214.63782	14618.7375
1218.21708	14315.6375
1221.79391	13971.2375
1225.36829	13728.3375
1228.94024	13540.9375
1232.50976	13305.7375
1236.07685	13159.3375
1239.6415	13065.4375
1243.20374	13090.4375
1246.76355	13172.7375
1250.32093	13364.9375
1253.8759	13609.9375
1257.42845	13920.6375
1260.97859	14261.7375
1264.52631	14572.1375
1268.07163	14940.3375
1271.61453	15338.1375
1275.15503	15736.1375
1278.69312	16205.9375
1282.22882	16581.6375
1285.76211	17051.4375
1289.29301	17587.6375
1292.82151	18310.3375
1296.34761	19283.4375
1299.87133	20443.7375
1303.39266	21642.6375
1306.9116	22747.9375
1310.42815	23597.9375
1313.94233	23844.0375
1317.45412	23577.1375
1320.96354	23062.3375
1324.47058	22605.1375
1327.97525	22201.2375
1331.47754	21983.9375
1334.97747	21810.9375
1338.47502	21583.8375
1341.97022	21300.7375
1345.46305	20983.5375
1348.95352	20780.5375
1352.44163	20824.5375
1355.92738	21201.8375
1359.41078	22053.9375
1362.89183	22695.1375
1366.37053	22343.9375
1369.84688	20784.6375
1373.32088	18744.7375
1376.79254	17326.2375
1380.26186	16799.6375
1383.72883	16789.7375
1387.19347	16892.9375
1390.65578	16735.6375
1394.11575	16653.6375
1397.57339	16766.4375
1401.0287	17047.6375
1404.48168	17278.2375
1407.93234	17241.7375
1411.38068	16912.6375
1414.82669	16383.4375
1418.27039	15771.2375
1421.71177	15153.1375
1425.15083	14629.8375
1428.58758	14373.4375
1432.02203	14425.3375
1435.45416	14723.6375
1438.88399	15139.8375
1442.31151	15478.2375
1445.73673	15698.6375
1449.15965	15843.4375
1452.58027	15920.5375
1455.9986	15883.1375
1459.41463	15889.7375
1462.82837	16042.6375
1466.23982	16286.8375
1469.64898	16550.2375
1473.05586	16725.0375
1476.46045	16805.8375
1479.86276	16778.0375
1483.26279	16595.0375
1486.66054	16521.5375
1490.05602	16536.4375
1493.44922	16683.2375
1496.84016	16823.3375
1500.22882	17092.1375
1503.61521	17457.1375
1506.99934	17974.4375
1510.38121	18415.1375
1513.76081	18577.9375
1517.13816	18305.2375
1520.51324	17791.5375
1523.88607	17380.4375
1527.25665	17152.3375
1530.62498	17133.8375
1533.99105	17106.9375
1537.35488	16921.8375
1540.71647	16632.4375
1544.07581	16236.2375
1547.4329	15847.8375
1550.78776	15469.0375
1554.14038	15258.2375
1557.49077	15118.7375
1560.83892	15035.9375
1564.18484	15014.9375
1567.52853	15061.7375
1570.86999	15186.7375
1574.20922	15487.3375
1577.54624	15752.1375
1580.88103	15891.6375
1584.2136	16069.7375
1587.54395	16498.2375
1590.87208	17227.6375
1594.19801	18122.0375
1597.52172	18908.8375
1600.84321	19080.7375
1604.16251	18295.0375
1607.47959	16994.6375
1610.79447	15599.5375
1614.10715	14369.8375
1617.41763	13390.0375
1620.7259	12775.3375
1624.03199	12473.5375
1627.33587	12466.2375
1630.63757	12774.2375
1633.93707	13417.7375
1637.23439	14457.9375
1640.52951	15995.9375
1643.82246	17902.2375
1647.11321	19482.7375
1650.40179	19858.4375
1653.68819	18656.6375
1656.97241	16498.2375
1660.25446	14322.4375
1663.53433	12669.9375
1666.81203	11627.6375
1670.08756	10971.2375
1673.36092	10572.9375
1676.63211	10310.3375
1679.90115	10132.2375
1683.16801	9986.8375
1686.43272	9889.6375
1689.69527	9799.1375
1692.95567	9698.3375
1696.2139	9656.5375
1699.46999	9577.9375
1702.72392	9528.6375
1705.97571	9529.0375
1709.22535	9570.1375
1712.47284	9583.5375
1715.71819	9596.1375
1718.96139	9569.1375
1722.20246	9543.6375
1725.44139	9503.3375
1728.67818	9499.3375
1731.91284	9434.4375
1735.14537	9390.0375
1738.37576	9352.5375
1741.60403	9326.0375
1744.83017	9285.4375
1748.05418	9279.7375
1751.27607	9224.2375
1754.49584	9192.6375
1757.71349	9175.9375
1760.92903	9169.1375
1764.14244	9141.8375
1767.35375	9146.2375
1770.56294	9142.4375
1773.77002	9140.5375
1776.97499	9133.2375
1780.17785	9159.6375
1783.37861	9128.6375
1786.57727	9137.6375
1789.77382	9158.9375
1792.96828	9113.0375
1796.16064	9095.2375
1799.3509	9073.8375
1802.53907	9064.9375
1805.72514	9041.8375
1808.90913	9039.7375
1812.09102	9024.8375
1815.27083	8998.3375
1818.44856	8982.6375
1821.6242	8968.8375
1824.79776	8961.0375
1827.96924	8960.8375
1831.13864	8949.4375
1834.30597	8945.3375
1837.47122	8954.8375
1840.6344	8938.3375
1843.7955	8933.5375
1846.95454	8912.8375
1850.11151	8943.1375
1853.26642	8895.5375
1856.41926	8912.6375
1859.57004	8914.7375
1862.71876	8918.3375
1865.86542	8890.2375
1869.01003	8888.2375
1872.15258	8895.9375
1875.29308	8904.3375
1878.43152	8864.4375
1881.56792	8867.2375
1884.70227	8839.7375
1887.83457	8847.0375
1890.96482	8809.6375
1894.09304	8812.1375
1897.21921	8816.0375
1900.34335	8813.5375
1903.46544	8796.3375
1906.58551	8796.5375
1909.70353	8771.0375
1912.81953	8761.1375
1915.93349	8760.0375
1919.04543	8753.5375
1922.15534	8731.6375
1925.26322	8719.7375
1928.36908	8709.3375
1931.47292	8683.8375
1934.57473	8654.4375
1937.67453	8646.4375
1940.77232	8648.4375
1943.86808	8603.1375
1946.96184	8586.2375
1950.05358	8563.6375
1953.14331	8535.5375
1956.23103	8501.2375
1959.31675	8481.3375
1962.40046	8481.5375
1965.48217	8434.0375
1968.56188	8426.1375
1971.63959	8407.3375
1974.7153	8376.0375
1977.78901	8376.2375
1980.86073	8337.7375
1983.93046	8326.4375
1986.99819	8275.1375
1990.06394	8266.1375
1993.1277	8244.9375
1996.18947	8222.5375
1999.24925	8194.5375
2002.30706	8169.1375
2005.36288	8160.6375
2008.41672	8141.6375
2011.46859	8124.2375
2014.51848	8104.8375
2017.56639	8064.6375
2020.61233	8052.4375
2023.6563	8046.0375
2026.6983	8042.9375
2029.73833	8037.3375
2032.7764	8015.3375
2035.8125	7982.7375
2038.84664	7973.0375
2041.87881	7960.7375
2044.90903	7939.0375
2047.93729	7910.9375
2050.96359	7926.1375
2053.98794	7898.1375
2057.01034	7916.4375
2060.03078	7923.7375
2063.04927	7905.1375
2066.06582	7905.1375
2069.08042	7888.4375
2072.09307	7894.4375
2075.10378	7888.0375
2078.11255	7899.3375
2081.11938	7883.7375
2084.12426	7901.0375
2087.12722	7873.2375
2090.12824	7880.8375
2093.12732	7880.8375
2096.12447	7873.2375
2099.11969	7881.4375
2102.11299	7872.9375
2105.10435	7888.2375
2108.09379	7891.8375
2111.08131	7915.0375
2114.0669	7914.0375
2117.05057	7903.1375
2120.03233	7898.2375
2123.01216	7912.3375
2125.99008	7947.8375
2128.96609	7955.3375
2131.94018	7952.1375
2134.91236	7940.7375
2137.88263	7967.0375
2140.851	7962.6375
2143.81746	7969.0375
2146.78201	7981.3375
2149.74466	7968.7375
2152.7054	7967.1375
2155.66425	7971.1375
2158.6212	7968.8375
2161.57625	7951.8375
2164.52941	7963.8375
2167.48067	7957.2375
2170.43004	7963.7375
2173.37752	7956.9375
2176.32311	7980.8375
2179.26681	7976.6375
2182.20863	7970.6375
2185.14856	7977.3375
2188.08661	8004.7375
2191.02278	7998.9375
2193.95707	7980.0375
2196.88948	7961.6375
2199.82001	7976.2375
2202.74867	7962.3375
2205.67545	7969.7375
2208.60037	7947.7375
2211.52341	7935.5375
2214.44458	7931.1375
2217.36388	7936.6375
2220.28132	7931.9375
2223.1969	7902.2375
2226.11061	7908.7375
2229.02246	7879.9375
2231.93245	7877.0375
2234.84058	7851.3375
2237.74686	7838.6375
2240.65128	7844.9375
2243.55385	7853.2375
2246.45456	7819.9375
2249.35343	7818.0375
2252.25044	7795.0375
2255.14561	7775.1375
2258.03893	7781.3375
2260.93041	7756.5375
2263.82004	7754.3375
2266.70783	7725.2375
2269.59378	7694.6375
2272.4779	7685.3375
2275.36017	7683.9375
2278.24061	7687.0375
2281.11922	7675.9375
2283.996	7676.4375
2286.87094	7665.0375
2289.74405	7625.2375
2292.61534	7643.9375
2295.4848	7641.0375
2298.35243	7666.9375
2301.21824	7642.1375
2304.08223	7660.8375
2306.94439	7665.7375
2309.80474	7655.2375
2312.66327	7647.7375
2315.51999	7639.4375
2318.37489	7652.0375
2321.22797	7618.1375
2324.07925	7646.4375
2326.92871	7610.8375
2329.77637	7600.3375
2332.62222	7605.3375
2335.46626	7593.5375
2338.3085	7597.6375
2341.14893	7589.2375
2343.98756	7591.8375
2346.8244	7586.5375
2349.65943	7579.8375
2352.49267	7581.3375
2355.32411	7588.0375
2358.15376	7581.0375
2360.98161	7551.9375
2363.80768	7561.7375
2366.63195	7555.1375
2369.45444	7540.0375
2372.27514	7534.5375
2375.09405	7544.5375
2377.91118	7519.9375
2380.72652	7516.4375
2383.54009	7478.2375
2386.35187	7485.6375
2389.16188	7463.4375
2391.97011	7455.8375
2394.77657	7448.3375
2397.58125	7433.1375
2400.38416	7446.5375
2403.18529	7434.5375
2405.98466	7411.4375
2408.78226	7401.9375
2411.57809	7401.1375
2414.37216	7389.0375
2417.16446	7400.6375
2419.955	7364.5375
2422.74378	7365.2375
2425.5308	7356.6375
2428.31606	7368.2375
2431.09956	7363.5375
2433.88131	7354.1375
2436.6613	7366.3375
2439.43954	7344.7375
2442.21603	7329.1375
2444.99077	7343.5375
2447.76377	7361.1375
2450.53501	7340.9375
2453.30451	7354.1375
2456.07226	7331.1375
2458.83827	7328.5375
2461.60254	7336.6375
2464.36507	7331.0375
2467.12586	7316.5375
2469.88492	7321.0375
2472.64224	7348.0375
2475.39782	7326.7375
2478.15167	7323.5375
2480.90379	7341.8375
2483.65417	7352.9375
2486.40283	7327.7375
2489.14976	7344.9375
2491.89497	7343.6375
2494.63845	7343.3375
2497.3802	7335.8375
2500.12024	7323.9375
2502.85855	7333.0375
2505.59514	7308.6375
2508.33002	7334.5375
2511.06318	7324.1375
2513.79462	7327.9375
2516.52435	7305.7375
2519.25237	7299.5375
2521.97867	7304.0375
2524.70327	7305.2375
2527.42616	7315.4375
2530.14734	7298.2375
2532.86681	7288.8375
2535.58458	7274.6375
2538.30065	7255.6375
2541.01501	7278.0375
2543.72768	7263.7375
2546.43864	7250.8375
2549.14791	7233.9375
2551.85548	7239.7375
2554.56136	7251.7375
2557.26554	7233.5375
2559.96803	7228.4375
2562.66883	7226.9375
2565.36794	7218.1375
2568.06536	7210.5375
2570.7611	7240.5375
2573.45514	7200.8375
2576.14751	7211.4375
2578.83819	7185.6375
2581.52719	7192.5375
2584.21451	7189.6375
2586.90015	7181.1375
2589.58411	7178.9375
2592.2664	7172.2375
2594.94701	7185.7375
2597.62594	7169.8375
2600.30321	7142.2375
2602.9788	7156.4375
2605.65273	7164.0375
2608.32498	7149.8375
2610.99557	7146.5375
2613.66449	7135.2375
2616.33175	7149.1375
2618.99734	7151.8375
2621.66128	7155.1375
2624.32355	7133.6375
2626.98416	7132.8375
2629.64311	7120.4375
2632.30041	7144.4375
2634.95605	7113.0375
2637.61004	7116.3375
2640.26238	7115.6375
2642.91306	7097.1375
2645.56209	7080.8375
2648.20948	7097.2375
2650.85521	7082.8375
2653.4993	7082.8375
2656.14175	7091.0375
2658.78255	7112.3375
2661.42171	7115.6375
2664.05923	7129.4375
2666.6951	7123.3375
2669.32934	7142.0375
2671.96194	7117.4375
2674.59291	7119.2375
2677.22224	7111.9375
2679.84993	7095.8375
2682.476	7104.9375
2685.10043	7105.7375
2687.72324	7102.4375
2690.34441	7111.9375
2692.96396	7085.9375
2695.58188	7119.6375
2698.19818	7128.9375
2700.81285	7114.2375
2703.4259	7087.0375
2706.03733	7086.9375
2708.64714	7084.7375
2711.25533	7125.6375
2713.86191	7128.1375
2716.46687	7146.6375
2719.07021	7143.3375
2721.67194	7151.2375
2724.27206	7161.1375
2726.87057	7166.5375
2729.46747	7162.4375
2732.06276	7161.5375
2734.65644	7145.8375
2737.24852	7140.2375
2739.83899	7165.0375
2742.42786	7165.5375
2745.01513	7145.9375
2747.60079	7144.5375
2750.18486	7143.1375
2752.76733	7144.8375
2755.3482	7136.8375
2757.92747	7129.6375
2760.50515	7142.6375
2763.08123	7127.6375
2765.65573	7137.6375
2768.22863	7138.6375
2770.79994	7131.0375
2773.36967	7122.9375
2775.9378	7142.3375
2778.50435	7123.0375
2781.06932	7127.6375
2783.6327	7121.2375
2786.1945	7118.6375
2788.75471	7116.9375
2791.31335	7097.9375
2793.87041	7084.4375
2796.42589	7070.4375
2798.97979	7077.1375
2801.53212	7086.1375
2804.08288	7062.9375
2806.63206	7047.8375
2809.17967	7014.3375
2811.72571	7024.2375
2814.27018	7006.3375
2816.81308	6985.0375
2819.35442	6986.8375
2821.89419	6993.7375
2824.43239	6987.7375
2826.96904	6993.9375
2829.50412	6964.8375
2832.03763	6972.0375
2834.56959	6975.7375
2837.1	6973.2375
2839.62884	6978.6375
2842.15613	6980.9375
2844.68186	7007.5375
2847.20604	7008.7375
2849.72867	7012.3375
2852.24974	7007.0375
2854.76927	6984.1375
2857.28724	6977.6375
2859.80367	6993.2375
2862.31855	6982.9375
2864.83189	6975.4375
2867.34368	6981.7375
2869.85393	6961.5375
2872.36264	6944.7375
2874.8698	6971.8375
2877.37543	6967.3375
2879.87952	6944.1375
2882.38207	6958.1375
2884.88308	6963.5375
2887.38256	6963.7375
2889.88051	6948.3375
2892.37692	6973.8375
2894.8718	6964.5375
2897.36515	6974.5375
2899.85698	6991.6375
2902.34727	7005.5375
2904.83604	7008.5375
2907.32328	7032.8375
2909.809	7020.1375
2912.29319	7029.2375
2914.77587	7023.4375
2917.25702	7017.1375
2919.73665	7023.8375
2922.21476	7010.7375
2924.69136	7009.7375
2927.16644	7016.7375
2929.64	7009.6375
2932.11205	7012.8375
2934.58258	6987.6375
2937.05161	6987.8375
2939.51912	6990.6375
2941.98513	7011.5375
2944.44962	6982.4375
2946.91261	6952.3375
2949.37409	6974.9375
2951.83407	6962.9375
2954.29254	6964.6375
2956.74951	6967.4375
2959.20498	6961.3375
2961.65895	6969.5375
2964.11142	6961.5375
2966.56239	6944.2375
2969.01186	6932.4375
2971.45984	6920.1375
2973.90632	6925.1375
2976.35131	6918.3375
2978.7948	6908.1375
2981.23681	6899.1375
2983.67732	6882.8375
2986.11635	6873.6375
2988.55388	6875.0375
2990.98993	6859.0375
2993.4245	6858.5375
2995.85758	6837.5375
2998.28917	6816.6375
3000.71928	6840.9375
3003.14791	6808.7375
3005.57506	6814.6375
3008.00073	6790.1375
3010.42493	6789.7375
3012.84764	6781.0375
3015.26888	6798.6375
3017.68865	6767.4375
3020.10694	6741.8375
3022.52376	6733.1375
3024.9391	6728.4375
3027.35298	6728.9375
3029.76539	6716.2375
3032.17632	6718.2375
3034.5858	6724.1375
3036.9938	6730.2375
3039.40034	6725.9375
3041.80542	6722.4375
3044.20903	6709.2375
3046.61118	6721.2375
3049.01187	6700.9375
3051.4111	6705.7375
3053.80888	6677.1375
3056.20519	6688.7375
3058.60005	6655.5375
3060.99345	6663.7375
3063.3854	6639.0375
3065.7759	6628.5375
3068.16494	6628.2375
3070.55254	6600.5375
3072.93868	6601.1375
3075.32338	6603.5375
3077.70662	6597.0375
3080.08842	6557.7375
3082.46878	6573.0375
3084.84769	6565.5375
3087.22515	6578.0375
3089.60118	6556.1375
3091.97576	6566.0375
3094.3489	6580.6375
3096.72061	6566.9375
3099.09087	6591.7375
3101.4597	6580.0375
3103.82709	6591.8375
3106.19305	6585.8375
3108.55757	6585.7375
3110.92066	6568.5375
3113.28232	6570.0375
3115.64255	6563.0375
3118.00134	6535.4375
3120.35871	6549.4375
3122.71466	6533.9375
3125.06917	6534.0375
3127.42226	6502.9375
3129.77393	6521.8375
3132.12417	6494.8375
3134.47299	6501.6375
3136.82039	6522.1375
3139.16636	6533.5375
3141.51092	6516.0375
3143.85406	6526.3375
3146.19579	6522.8375
3148.53609	6551.8375
3150.87499	6568.5375
3153.21246	6569.9375
3155.54853	6577.6375
3157.88318	6574.2375
3160.21642	6563.5375
3162.54826	6577.2375
3164.87868	6602.4375
3167.2077	6575.5375
3169.5353	6591.5375
3171.86151	6592.3375
3174.18631	6577.1375
3176.5097	6585.8375
3178.83169	6581.2375
3181.15228	6600.8375
3183.47147	6604.3375
3185.78926	6584.1375
3188.10565	6573.4375
3190.42065	6584.7375
3192.73424	6572.2375
3195.04645	6583.2375
3197.35725	6589.8375
3199.66667	6580.6375
3201.97469	6578.1375
3204.28132	6584.7375
3206.58656	6611.4375
3208.8904	6613.8375
3211.19287	6592.1375
3213.49394	6607.6375
3215.79363	6600.6375
3218.09193	6608.7375
3220.38884	6615.3375
3222.68438	6606.3375
3224.97853	6606.0375
3227.2713	6603.6375
3229.56269	6595.9375
3231.8527	6617.0375
3234.14133	6607.3375
3236.42858	6593.5375
3238.71446	6587.6375
3240.99896	6561.8375
3243.28209	6585.3375
3245.56384	6564.2375
3247.84423	6561.7375
3250.12324	6560.7375
3252.40088	6555.6375
3254.67715	6555.4375
3256.95205	6548.2375
3259.22558	6555.2375
3261.49775	6555.3375
3263.76855	6537.8375
3266.03799	6511.4375
3268.30606	6511.7375
3270.57277	6509.6375
3272.83812	6488.7375
3275.10211	6498.8375
3277.36474	6487.6375
3279.62601	6487.8375
3281.88593	6467.5375
3284.14448	6470.6375
3286.40168	6503.0375
3288.65753	6493.0375
3290.91202	6491.1375
3293.16516	6470.1375
3295.41695	6439.5375
3297.66738	6410.5375
3299.91647	6389.4375
3302.16421	6344.2375
3304.4106	6332.7375
3306.65564	6317.4375
3308.89933	6271.3375
3311.14169	6227.9375
3313.38269	6164.7375
3315.62236	6133.1375
3317.86068	6081.0375
3320.09766	6045.3375
3322.3333	6019.1375
3324.5676	5996.2375
3326.80056	5874.1375
3329.03219	5848.0375
3331.26248	2.1375
3333.49143	0.7375
3335.71905	-0.6625
