Data from AgNPs_FTO_APTES_UA_1uM_CRN_10uM_R6G_10uM_NaF_0.1M_Addition_RamanShift__33__14-54-19-664.txt Node

Date: Thu Jan 27 14:54:19 GMT 2022
User: TCL
Spectrometer: QEP01345
Trigger mode: 4
Integration Time (sec): 7.000000E0
Scans to average: 10
Electric dark correction enabled: true
Nonlinearity correction enabled: false
Boxcar width: 0
XAxis mode: Raman Shifts
Number of Pixels in Spectrum: 1044
>>>>>Begin Spectral Data<<<<<
46.04893	0.9
50.45542	0.6
54.85868	-0.8
59.25871	-0.8
63.6555	38.6
68.04907	39.4
72.43941	40.9
76.82654	45.4
81.21044	47.1
85.59113	46.4
89.96862	49.3
94.34289	52.2
98.71396	56.9
103.08183	50.7
107.4465	55.6
111.80798	60.4
116.16626	56.1
120.52136	62.6
124.87327	61.5
129.222	60.7
133.56755	62
137.90993	67.8
142.24913	69.1
146.58517	75.8
150.91804	82.9
155.24774	95.4
159.57429	115.6
163.89768	140.5
168.21792	180.5
172.53501	237.4
176.84895	328.7
181.15975	456.4
185.46741	625.6
189.77193	863.3
194.07331	1156.6
198.37157	1489
202.6667	1845.6
206.9587	2199
211.24758	2534.3
215.53334	2889.7
219.81599	3270.8
224.09553	3709.4
228.37195	4158
232.64527	4685.2
236.91549	5196.1
241.18261	5717
245.44663	6127.2
249.70755	6541.8
253.96539	6882.8
258.22014	7199.3
262.4718	7446.8
266.72039	7648.7
270.96589	7769.6
275.20832	7771.4
279.44768	7747.1
283.68397	7631.2
287.91719	7555.1
292.14735	7505.9
296.37445	7534
300.59849	7664.3
304.81948	7825.3
309.03742	7964.2
313.25231	7953.2
317.46415	7700.8
321.67296	7308
325.87872	7009
330.08145	6860.5
334.28114	6850.7
338.47781	6935.1
342.67145	7062.8
346.86207	7254.7
351.04966	7524.9
355.23424	7840.1
359.4158	8094.5
363.59435	8243.1
367.76989	8329.2
371.94243	8359.2
376.11196	8358.2
380.27849	8366
384.44203	8353.3
388.60257	8307.2
392.76012	8297
396.91468	8385
401.06626	8530.4
405.21485	8661.8
409.36047	8602.3
413.50311	8329.6
417.64277	8080.2
421.77947	7936.9
425.9132	7892.7
430.04396	7903.1
434.17176	7927.5
438.2966	8034
442.41849	8190.6
446.53742	8401.6
450.6534	8648.8
454.76644	8825.9
458.87653	8883.7
462.98368	8799.5
467.08789	8694.4
471.18916	8582.2
475.2875	8430.1
479.38291	8310.8
483.4754	8229.8
487.56496	8149.5
491.6516	8043.5
495.73531	7992.1
499.81612	7987.8
503.89401	8036.5
507.96899	8083.6
512.04106	8108.1
516.11023	8158.1
520.1765	8185.4
524.23987	8161.6
528.30034	8079
532.35792	7982.6
536.41261	7881.6
540.46441	7757.1
544.51333	7709.1
548.55936	7743.1
552.60252	7878.3
556.64279	8036.1
560.6802	8124.6
564.71473	8199.3
568.7464	8378.1
572.7752	8535.7
576.80114	8475.2
580.82422	8343.6
584.84444	8345.1
588.86181	8387.7
592.87633	8498.9
596.888	8624.8
600.89682	8811.7
604.9028	9336.1
608.90594	10790.5
612.90624	12728.6
616.90371	12347.2
620.89834	9635.2
624.89015	8341.1
628.87913	8108.7
632.86528	8120.5
636.84862	8149.1
640.82913	8047.5
644.80683	7811.7
648.78172	7633.6
652.75379	7613
656.72306	7810.4
660.68952	8073.3
664.65319	8058.6
668.61405	7817.8
672.57211	7703.5
676.52738	7690.3
680.47986	7663.9
684.42955	7632.9
688.37646	7617
692.32058	7622.3
696.26192	7702.7
700.20048	7777.3
704.13626	7826.1
708.06928	7775.4
711.99952	7748.9
715.927	7759.1
719.85171	7781.2
723.77365	7764.6
727.69284	7697.6
731.60928	7624.8
735.52295	7622.3
739.43388	7623.7
743.34206	7670.1
747.24749	7686.4
751.15017	7724.1
755.05012	7820.7
758.94733	8061.1
762.8418	8549.9
766.73354	9418.6
770.62254	10376.3
774.50882	10830.2
778.39237	10497
782.27321	9540
786.15132	8617.5
790.02671	8070.7
793.89938	7843.1
797.76935	7737.6
801.6366	7675.6
805.50115	7647.1
809.36299	7599
813.22213	7586.7
817.07857	7573.1
820.93231	7589.6
824.78336	7572.7
828.63172	7615.4
832.47738	7614.2
836.32036	7619.7
840.16066	7617.9
843.99827	7604.7
847.8332	7571.7
851.66546	7548.4
855.49504	7557.5
859.32195	7533.6
863.1462	7526.8
866.96777	7506.8
870.78668	7464.1
874.60293	7461.6
878.41652	7509.2
882.22745	7511.9
886.03573	7539.6
889.84136	7545.9
893.64433	7497.9
897.44466	7473.7
901.24235	7464.2
905.0374	7439.6
908.8298	7415.4
912.61957	7414.7
916.40671	7457.5
920.19121	7512.6
923.97308	7579.8
927.75233	7654.8
931.52895	7675
935.30295	7635.5
939.07433	7498.5
942.84309	7352.9
946.60924	7285.5
950.37278	7255.2
954.13371	7235.6
957.89203	7175
961.64774	7178.4
965.40086	7145.8
969.15137	7113.8
972.89929	7109.4
976.64461	7074.5
980.38733	7104.8
984.12747	7118
987.86502	7186.7
991.59999	7262.8
995.33237	7343.3
999.06217	7501.6
1002.78939	7670.8
1006.51404	7779.9
1010.23611	7873.8
1013.95561	7930.6
1017.67255	7915.8
1021.38692	7843
1025.09872	7790.3
1028.80796	7790.5
1032.51465	7900.7
1036.21877	8036.5
1039.92035	8054.8
1043.61937	7992.7
1047.31584	7902.6
1051.00976	7797.2
1054.70114	7717.3
1058.38998	7714.9
1062.07627	7712.9
1065.76003	7723.1
1069.44126	7756
1073.11995	7830.1
1076.79611	7913.1
1080.46974	7984.1
1084.14085	8101.3
1087.80943	8225.6
1091.47549	8294.8
1095.13903	8210.3
1098.80005	8068.9
1102.45857	7919.3
1106.11456	7803.7
1109.76805	7830
1113.41903	7909.4
1117.06751	8040.5
1120.71348	8211.3
1124.35696	8401.2
1127.99793	8572
1131.63641	8567.3
1135.2724	8351.9
1138.90589	8118.3
1142.5369	7984
1146.16542	7931.1
1149.79145	7881.6
1153.415	7885.4
1157.03607	7950.2
1160.65467	8055.7
1164.27079	8266.8
1167.88443	8609.3
1171.49561	9100.1
1175.10432	9872.6
1178.71056	10901.3
1182.31434	11738.2
1185.91565	12067.6
1189.51451	11895.7
1193.11091	11354.9
1196.70485	10670.4
1200.29634	10131.9
1203.88538	9757.1
1207.47197	9389
1211.05612	9072.6
1214.63782	8876.8
1218.21708	8817
1221.79391	8817.8
1225.36829	8849
1228.94024	8864.7
1232.50976	8802.2
1236.07685	8727
1239.6415	8688.4
1243.20374	8690.8
1246.76355	8733.9
1250.32093	8833.3
1253.8759	8990.1
1257.42845	9188.4
1260.97859	9416.7
1264.52631	9619.1
1268.07163	9830.9
1271.61453	10067.1
1275.15503	10259.9
1278.69312	10412.8
1282.22882	10528.2
1285.76211	10724.4
1289.29301	10962.6
1292.82151	11236.3
1296.34761	11605
1299.87133	12119.2
1303.39266	12851.4
1306.9116	13856.7
1310.42815	15023.1
1313.94233	15782.3
1317.45412	15697.7
1320.96354	15018.2
1324.47058	14223.9
1327.97525	13493.3
1331.47754	12998.4
1334.97747	12794.4
1338.47502	12750.8
1341.97022	12757.2
1345.46305	12824.8
1348.95352	13055.9
1352.44163	13529.1
1355.92738	14346.4
1359.41078	15705.4
1362.89183	17170.4
1366.37053	17157.3
1369.84688	15276.5
1373.32088	13078.7
1376.79254	11659.1
1380.26186	11011
1383.72883	10755.8
1387.19347	10589.9
1390.65578	10318.4
1394.11575	10125.1
1397.57339	10080.2
1401.0287	10191.3
1404.48168	10345.1
1407.93234	10463.4
1411.38068	10463.8
1414.82669	10352.2
1418.27039	10122.1
1421.71177	9870.3
1425.15083	9639.1
1428.58758	9477.1
1432.02203	9458.7
1435.45416	9570.6
1438.88399	9694.9
1442.31151	9808.1
1445.73673	9880.4
1449.15965	9982.9
1452.58027	9986.6
1455.9986	9920.6
1459.41463	9891.6
1462.82837	9977.4
1466.23982	10114.8
1469.64898	10310.3
1473.05586	10455.8
1476.46045	10532.9
1479.86276	10650.9
1483.26279	10709.4
1486.66054	10780.8
1490.05602	10927.1
1493.44922	11169.6
1496.84016	11493.8
1500.22882	12050.1
1503.61521	12811.6
1506.99934	13795
1510.38121	14825.2
1513.76081	15381.5
1517.13816	14969.9
1520.51324	13793.9
1523.88607	12477.4
1527.25665	11545.5
1530.62498	11041.8
1533.99105	10760.7
1537.35488	10553
1540.71647	10432.3
1544.07581	10313.7
1547.4329	10194.2
1550.78776	10108.8
1554.14038	10042.3
1557.49077	10060
1560.83892	10130.2
1564.18484	10265.1
1567.52853	10417.9
1570.86999	10586.1
1574.20922	10726.4
1577.54624	10810.4
1580.88103	10613.6
1584.2136	10265.5
1587.54395	10185.6
1590.87208	10411.3
1594.19801	10943.1
1597.52172	11606.7
1600.84321	11937
1604.16251	11593.6
1607.47959	10854.6
1610.79447	10037.8
1614.10715	9300.7
1617.41763	8738.2
1620.7259	8389.8
1624.03199	8242.6
1627.33587	8212.2
1630.63757	8373.7
1633.93707	8717.3
1637.23439	9283.1
1640.52951	10080.1
1643.82246	11097.1
1647.11321	12090.2
1650.40179	12759.6
1653.68819	12375.1
1656.97241	11010.6
1660.25446	9511.8
1663.53433	8375.9
1666.81203	7751.3
1670.08756	7378.7
1673.36092	7137.5
1676.63211	7004.2
1679.90115	6908.3
1683.16801	6818.3
1686.43272	6753.1
1689.69527	6704.2
1692.95567	6660.6
1696.2139	6633.2
1699.46999	6571.7
1702.72392	6557.1
1705.97571	6561.1
1709.22535	6593.6
1712.47284	6601.2
1715.71819	6625.3
1718.96139	6630.1
1722.20246	6601.3
1725.44139	6591.6
1728.67818	6579.4
1731.91284	6511
1735.14537	6504.6
1738.37576	6462.4
1741.60403	6434.8
1744.83017	6426
1748.05418	6397.5
1751.27607	6388.3
1754.49584	6363.1
1757.71349	6347.8
1760.92903	6312.9
1764.14244	6319
1767.35375	6305.2
1770.56294	6293.7
1773.77002	6309.5
1776.97499	6304.4
1780.17785	6309.1
1783.37861	6309.1
1786.57727	6308.8
1789.77382	6310
1792.96828	6298.7
1796.16064	6287.5
1799.3509	6282.8
1802.53907	6276.3
1805.72514	6264.7
1808.90913	6253.1
1812.09102	6226.3
1815.27083	6223.2
1818.44856	6220.3
1821.6242	6185.5
1824.79776	6179.8
1827.96924	6172.2
1831.13864	6173.1
1834.30597	6156.7
1837.47122	6157.8
1840.6344	6163.6
1843.7955	6168.8
1846.95454	6140.9
1850.11151	6152.6
1853.26642	6155.2
1856.41926	6159.9
1859.57004	6184.8
1862.71876	6158.9
1865.86542	6169.2
1869.01003	6163.2
1872.15258	6148.4
1875.29308	6144.1
1878.43152	6162.4
1881.56792	6167.5
1884.70227	6150.6
1887.83457	6140.1
1890.96482	6139.1
1894.09304	6130.9
1897.21921	6137.6
1900.34335	6128
1903.46544	6123.7
1906.58551	6131.1
1909.70353	6129.2
1912.81953	6136.9
1915.93349	6120.3
1919.04543	6114.7
1922.15534	6100.1
1925.26322	6090.2
1928.36908	6055.9
1931.47292	6049.1
1934.57473	6063
1937.67453	6013.3
1940.77232	6009.7
1943.86808	5991.2
1946.96184	5959.1
1950.05358	5932.7
1953.14331	5906.9
1956.23103	5916
1959.31675	5886.8
1962.40046	5875.3
1965.48217	5868.6
1968.56188	5859.8
1971.63959	5843
1974.7153	5826.3
1977.78901	5814
1980.86073	5786.7
1983.93046	5774.1
1986.99819	5747.8
1990.06394	5741.3
1993.1277	5719.8
1996.18947	5688.7
1999.24925	5672.5
2002.30706	5664.4
2005.36288	5657
2008.41672	5638.9
2011.46859	5624.6
2014.51848	5608.4
2017.56639	5584.3
2020.61233	5599.8
2023.6563	5575.6
2026.6983	5554.2
2029.73833	5542.1
2032.7764	5528.2
2035.8125	5531.5
2038.84664	5516
2041.87881	5508
2044.90903	5478.5
2047.93729	5489.8
2050.96359	5487.9
2053.98794	5470.9
2057.01034	5469.6
2060.03078	5469
2063.04927	5457.4
2066.06582	5464.2
2069.08042	5460.5
2072.09307	5446.5
2075.10378	5438.5
2078.11255	5452.5
2081.11938	5439.6
2084.12426	5446
2087.12722	5431.7
2090.12824	5421.7
2093.12732	5436.7
2096.12447	5435.9
2099.11969	5440
2102.11299	5449.3
2105.10435	5429.9
2108.09379	5433.6
2111.08131	5446.5
2114.0669	5437
2117.05057	5456.9
2120.03233	5462.2
2123.01216	5463.3
2125.99008	5484.9
2128.96609	5471.8
2131.94018	5496.8
2134.91236	5489.1
2137.88263	5497
2140.851	5480.3
2143.81746	5491
2146.78201	5486
2149.74466	5495.7
2152.7054	5495.7
2155.66425	5486.6
2158.6212	5489.3
2161.57625	5480
2164.52941	5488.1
2167.48067	5479.2
2170.43004	5480.6
2173.37752	5497.7
2176.32311	5490.4
2179.26681	5473.1
2182.20863	5480
2185.14856	5476
2188.08661	5478.4
2191.02278	5464.9
2193.95707	5467.2
2196.88948	5479.9
2199.82001	5480.2
2202.74867	5480.3
2205.67545	5482.9
2208.60037	5470
2211.52341	5453.7
2214.44458	5449.3
2217.36388	5438.9
2220.28132	5410.9
2223.1969	5428.2
2226.11061	5420.2
2229.02246	5412.8
2231.93245	5388.5
2234.84058	5362.9
2237.74686	5378.3
2240.65128	5356.6
2243.55385	5370.8
2246.45456	5352.2
2249.35343	5332.1
2252.25044	5341.7
2255.14561	5344
2258.03893	5321.1
2260.93041	5326.8
2263.82004	5309
2266.70783	5303.4
2269.59378	5301.2
2272.4779	5277.5
2275.36017	5266.1
2278.24061	5259.2
2281.11922	5250.5
2283.996	5252.4
2286.87094	5221
2289.74405	5229.3
2292.61534	5223.8
2295.4848	5210.2
2298.35243	5220.1
2301.21824	5204.5
2304.08223	5208.1
2306.94439	5222.2
2309.80474	5218.1
2312.66327	5201.2
2315.51999	5206.4
2318.37489	5192.5
2321.22797	5194.5
2324.07925	5197.6
2326.92871	5177.9
2329.77637	5179.4
2332.62222	5177.5
2335.46626	5174.1
2338.3085	5167
2341.14893	5163
2343.98756	5169.6
2346.8244	5155.7
2349.65943	5167.9
2352.49267	5154.6
2355.32411	5181.2
2358.15376	5165.2
2360.98161	5159.3
2363.80768	5158.1
2366.63195	5155.7
2369.45444	5151.7
2372.27514	5151.5
2375.09405	5122.2
2377.91118	5126.4
2380.72652	5104.3
2383.54009	5091.3
2386.35187	5095.8
2389.16188	5072
2391.97011	5054.7
2394.77657	5049.1
2397.58125	5041.8
2400.38416	5033.7
2403.18529	5021.2
2405.98466	5023.4
2408.78226	5021.6
2411.57809	5019.6
2414.37216	4997.3
2417.16446	4995.8
2419.955	4994.6
2422.74378	4989.5
2425.5308	4987.3
2428.31606	4980.8
2431.09956	4973.1
2433.88131	4955.7
2436.6613	4971.8
2439.43954	4974.5
2442.21603	4952.6
2444.99077	4964.5
2447.76377	4971.4
2450.53501	4981.7
2453.30451	4964.1
2456.07226	4968.7
2458.83827	4946
2461.60254	4962.5
2464.36507	4959
2467.12586	4938.8
2469.88492	4943.9
2472.64224	4955
2475.39782	4952.4
2478.15167	4944.6
2480.90379	4924.2
2483.65417	4964.8
2486.40283	4953.5
2489.14976	4972.7
2491.89497	4961.1
2494.63845	4962.7
2497.3802	4944.9
2500.12024	4951.1
2502.85855	4947.9
2505.59514	4935.7
2508.33002	4926.6
2511.06318	4927.9
2513.79462	4913.7
2516.52435	4898.8
2519.25237	4906.9
2521.97867	4886.8
2524.70327	4905.1
2527.42616	4871.8
2530.14734	4877.7
2532.86681	4866.5
2535.58458	4882.7
2538.30065	4872.7
2541.01501	4860.3
2543.72768	4857.5
2546.43864	4856.4
2549.14791	4845.8
2551.85548	4851.8
2554.56136	4840.4
2557.26554	4823.2
2559.96803	4828.5
2562.66883	4828.2
2565.36794	4843.2
2568.06536	4821.9
2570.7611	4800.9
2573.45514	4797
2576.14751	4787.3
2578.83819	4793.9
2581.52719	4785.8
2584.21451	4774
2586.90015	4765.4
2589.58411	4779.9
2592.2664	4773
2594.94701	4766.9
2597.62594	4761.1
2600.30321	4742.8
2602.9788	4739.4
2605.65273	4749.1
2608.32498	4741.9
2610.99557	4727.5
2613.66449	4746
2616.33175	4739.4
2618.99734	4748.8
2621.66128	4750.3
2624.32355	4733.1
2626.98416	4738.2
2629.64311	4739.2
2632.30041	4735
2634.95605	4714.1
2637.61004	4709.9
2640.26238	4684.2
2642.91306	4696.8
2645.56209	4689.9
2648.20948	4678.5
2650.85521	4688.2
2653.4993	4686.7
2656.14175	4684.9
2658.78255	4696.4
2661.42171	4687.4
2664.05923	4705
2666.6951	4703.3
2669.32934	4696.9
2671.96194	4701.5
2674.59291	4707.1
2677.22224	4703.2
2679.84993	4714.2
2682.476	4702.5
2685.10043	4701.8
2687.72324	4684.4
2690.34441	4694.9
2692.96396	4679.5
2695.58188	4691.7
2698.19818	4691.3
2700.81285	4689.9
2703.4259	4703.8
2706.03733	4689.9
2708.64714	4675.8
2711.25533	4694.3
2713.86191	4685.8
2716.46687	4727.2
2719.07021	4705.6
2721.67194	4703.6
2724.27206	4714.1
2726.87057	4723.5
2729.46747	4728
2732.06276	4729.9
2734.65644	4720
2737.24852	4710.5
2739.83899	4698.3
2742.42786	4707.7
2745.01513	4687.6
2747.60079	4689.8
2750.18486	4693.3
2752.76733	4683.7
2755.3482	4676.6
2757.92747	4679.5
2760.50515	4663
2763.08123	4658.3
2765.65573	4658.5
2768.22863	4669.1
2770.79994	4662.6
2773.36967	4653.6
2775.9378	4672
2778.50435	4661.1
2781.06932	4657
2783.6327	4644.5
2786.1945	4639
2788.75471	4644.4
2791.31335	4649.4
2793.87041	4625.5
2796.42589	4612.7
2798.97979	4624.2
2801.53212	4611.7
2804.08288	4604.3
2806.63206	4599.7
2809.17967	4581.8
2811.72571	4584.6
2814.27018	4563.9
2816.81308	4563.7
2819.35442	4570.7
2821.89419	4588.4
2824.43239	4577.5
2826.96904	4569.9
2829.50412	4576
2832.03763	4563.4
2834.56959	4581.1
2837.1	4570.8
2839.62884	4574.5
2842.15613	4567.2
2844.68186	4601.5
2847.20604	4621.6
2849.72867	4634.1
2852.24974	4624.3
2854.76927	4630.9
2857.28724	4623
2859.80367	4621.4
2862.31855	4596.3
2864.83189	4605.8
2867.34368	4585.2
2869.85393	4604.4
2872.36264	4604.7
2874.8698	4586.4
2877.37543	4570.7
2879.87952	4592.2
2882.38207	4602
2884.88308	4585.9
2887.38256	4584.3
2889.88051	4581.6
2892.37692	4592.2
2894.8718	4583.9
2897.36515	4599.3
2899.85698	4585.8
2902.34727	4599
2904.83604	4590.5
2907.32328	4603.4
2909.809	4593.6
2912.29319	4599.4
2914.77587	4600.2
2917.25702	4609.6
2919.73665	4599.4
2922.21476	4623
2924.69136	4615.5
2927.16644	4628.2
2929.64	4592.7
2932.11205	4591.6
2934.58258	4581.5
2937.05161	4591.7
2939.51912	4593.4
2941.98513	4559.1
2944.44962	4530.2
2946.91261	4524.3
2949.37409	4527.8
2951.83407	4518
2954.29254	4514.7
2956.74951	4488
2959.20498	4503.3
2961.65895	4507.4
2964.11142	4496.2
2966.56239	4480.8
2969.01186	4477.2
2971.45984	4475.5
2973.90632	4470.2
2976.35131	4457.9
2978.7948	4462.8
2981.23681	4448.2
2983.67732	4442.6
2986.11635	4444.2
2988.55388	4424.8
2990.98993	4421.9
2993.4245	4395.6
2995.85758	4401.5
2998.28917	4376
3000.71928	4393.9
3003.14791	4372.3
3005.57506	4378.5
3008.00073	4377.6
3010.42493	4385.9
3012.84764	4366.5
3015.26888	4354.9
3017.68865	4344.3
3020.10694	4351
3022.52376	4345.6
3024.9391	4348.9
3027.35298	4336.4
3029.76539	4334.6
3032.17632	4327.3
3034.5858	4315.7
3036.9938	4325
3039.40034	4322.8
3041.80542	4328.3
3044.20903	4314.8
3046.61118	4315
3049.01187	4312.3
3051.4111	4308.6
3053.80888	4311.8
3056.20519	4308
3058.60005	4271.4
3060.99345	4277.9
3063.3854	4278.9
3065.7759	4249.6
3068.16494	4259.6
3070.55254	4249.2
3072.93868	4256.7
3075.32338	4246.2
3077.70662	4243.2
3080.08842	4233.6
3082.46878	4242
3084.84769	4228.9
3087.22515	4218.6
3089.60118	4216.7
3091.97576	4214.4
3094.3489	4213.3
3096.72061	4220.4
3099.09087	4239.9
3101.4597	4225
3103.82709	4227
3106.19305	4230
3108.55757	4238.4
3110.92066	4225.2
3113.28232	4220.7
3115.64255	4211.3
3118.00134	4211.9
3120.35871	4214.4
3122.71466	4204.6
3125.06917	4196.4
3127.42226	4190.4
3129.77393	4194.5
3132.12417	4197.1
3134.47299	4216
3136.82039	4212
3139.16636	4219
3141.51092	4223.5
3143.85406	4231.6
3146.19579	4222.3
3148.53609	4232.5
3150.87499	4233.5
3153.21246	4240.5
3155.54853	4256.7
3157.88318	4243.9
3160.21642	4255.4
3162.54826	4248.9
3164.87868	4257.7
3167.2077	4266.2
3169.5353	4275.3
3171.86151	4274.4
3174.18631	4278.3
3176.5097	4267.9
3178.83169	4263.5
3181.15228	4273.9
3183.47147	4267.2
3185.78926	4278.9
3188.10565	4275.2
3190.42065	4258.7
3192.73424	4275.9
3195.04645	4277.5
3197.35725	4279.7
3199.66667	4278.1
3201.97469	4286.3
3204.28132	4290.3
3206.58656	4291.7
3208.8904	4295.6
3211.19287	4310.1
3213.49394	4312.6
3215.79363	4321.1
3218.09193	4336.7
3220.38884	4326
3222.68438	4311.1
3224.97853	4312.7
3227.2713	4315.1
3229.56269	4317.3
3231.8527	4327.9
3234.14133	4309.1
3236.42858	4296.3
3238.71446	4292.5
3240.99896	4286
3243.28209	4301.6
3245.56384	4295.1
3247.84423	4294.2
3250.12324	4286.5
3252.40088	4274.5
3254.67715	4279.4
3256.95205	4273.4
3259.22558	4286.3
3261.49775	4292.7
3263.76855	4275.4
3266.03799	4272.3
3268.30606	4265.5
3270.57277	4249.7
3272.83812	4259.5
3275.10211	4247.2
3277.36474	4241.3
3279.62601	4247.5
3281.88593	4233.4
3284.14448	4229.1
3286.40168	4247.1
3288.65753	4253.1
3290.91202	4255
3293.16516	4241.1
3295.41695	4213.1
3297.66738	4200.6
3299.91647	4185
3302.16421	4161.8
3304.4106	4143.1
3306.65564	4132.3
3308.89933	4120.7
3311.14169	4065.4
3313.38269	4048.3
3315.62236	4019.3
3317.86068	3990.5
3320.09766	3964
3322.3333	3935.7
3324.5676	3922.1
3326.80056	3864.9
3329.03219	3845.5
3331.26248	1.6
3333.49143	0.2
3335.71905	-1.2
