Data from AgNPs_FTO_APTES_UA_1uM_CRN_500uM_R6G_10uM_NaF_0.1M_Addition_RamanShift__21__18-09-09-886.txt Node

Date: Thu Jan 27 18:09:09 GMT 2022
User: TCL
Spectrometer: QEP01345
Trigger mode: 4
Integration Time (sec): 7.000000E0
Scans to average: 10
Electric dark correction enabled: true
Nonlinearity correction enabled: false
Boxcar width: 0
XAxis mode: Raman Shifts
Number of Pixels in Spectrum: 1044
>>>>>Begin Spectral Data<<<<<
46.04893	0.3875
50.45542	0.1875
54.85868	-1.3125
59.25871	-1.0125
63.6555	43.8875
68.04907	49.6875
72.43941	50.1875
76.82654	53.1875
81.21044	54.6875
85.59113	57.2875
89.96862	56.5875
94.34289	62.9875
98.71396	64.3875
103.08183	65.5875
107.4465	66.2875
111.80798	68.7875
116.16626	68.6875
120.52136	73.8875
124.87327	70.7875
129.222	72.0875
133.56755	77.1875
137.90993	78.2875
142.24913	87.6875
146.58517	96.6875
150.91804	108.7875
155.24774	124.4875
159.57429	143.6875
163.89768	184.6875
168.21792	241.8875
172.53501	318.6875
176.84895	435.5875
181.15975	611.1875
185.46741	853.8875
189.77193	1174.9875
194.07331	1574.8875
198.37157	2032.0875
202.6667	2515.5875
206.9587	2990.2875
211.24758	3467.2875
215.53334	3938.9875
219.81599	4419.5875
224.09553	4989.6875
228.37195	5588.8875
232.64527	6227.8875
236.91549	6929.4875
241.18261	7636.5875
245.44663	8303.7875
249.70755	8871.3875
253.96539	9396.3875
258.22014	9796.0875
262.4718	10162.9875
266.72039	10400.7875
270.96589	10502.1875
275.20832	10532.2875
279.44768	10459.1875
283.68397	10339.4875
287.91719	10231.2875
292.14735	10190.1875
296.37445	10175.7875
300.59849	10219.5875
304.81948	10257.2875
309.03742	10219.7875
313.25231	10105.4875
317.46415	9849.5875
321.67296	9551.4875
325.87872	9310.5875
330.08145	9207.1875
334.28114	9205.7875
338.47781	9288.9875
342.67145	9380.4875
346.86207	9513.5875
351.04966	9712.8875
355.23424	9914.8875
359.4158	10107.2875
363.59435	10232.5875
367.76989	10317.5875
371.94243	10421.4875
376.11196	10467.4875
380.27849	10566.1875
384.44203	10645.9875
388.60257	10685.8875
392.76012	10738.2875
396.91468	10860.5875
401.06626	11013.5875
405.21485	11153.7875
409.36047	11123.4875
413.50311	11004.0875
417.64277	10871.9875
421.77947	10869.9875
425.9132	10907.9875
430.04396	10965.6875
434.17176	11027.8875
438.2966	11128.7875
442.41849	11293.8875
446.53742	11548.0875
450.6534	11877.5875
454.76644	12082.9875
458.87653	12164.2875
462.98368	12102.8875
467.08789	11944.2875
471.18916	11784.6875
475.2875	11635.1875
479.38291	11558.8875
483.4754	11494.8875
487.56496	11413.8875
491.6516	11245.6875
495.73531	11150.6875
499.81612	11117.6875
503.89401	11181.3875
507.96899	11205.5875
512.04106	11186.8875
516.11023	11150.6875
520.1765	11032.6875
524.23987	10958.7875
528.30034	10878.4875
532.35792	10797.7875
536.41261	10695.7875
540.46441	10590.1875
544.51333	10537.7875
548.55936	10643.3875
552.60252	10828.8875
556.64279	11046.3875
560.6802	11207.6875
564.71473	11287.7875
568.7464	11470.0875
572.7752	11712.6875
576.80114	11859.8875
580.82422	12001.5875
584.84444	12151.2875
588.86181	12373.1875
592.87633	12601.4875
596.888	12691.7875
600.89682	12652.8875
604.9028	12836.3875
608.90594	13701.3875
612.90624	14796.2875
616.90371	14110.7875
620.89834	12015.8875
624.89015	11021.0875
628.87913	10892.7875
632.86528	10987.8875
636.84862	11012.7875
640.82913	10922.3875
644.80683	10653.5875
648.78172	10481.8875
652.75379	10441.6875
656.72306	10500.1875
660.68952	10667.7875
664.65319	10665.9875
668.61405	10506.8875
672.57211	10497.4875
676.52738	10559.9875
680.47986	10612.3875
684.42955	10573.7875
688.37646	10489.9875
692.32058	10468.1875
696.26192	10514.2875
700.20048	10579.9875
704.13626	10647.0875
708.06928	10628.5875
711.99952	10535.3875
715.927	10511.0875
719.85171	10505.2875
723.77365	10498.1875
727.69284	10456.6875
731.60928	10404.3875
735.52295	10358.6875
739.43388	10380.3875
743.34206	10412.1875
747.24749	10439.5875
751.15017	10501.9875
755.05012	10635.0875
758.94733	10895.4875
762.8418	11313.5875
766.73354	12070.1875
770.62254	12871.8875
774.50882	13176.2875
778.39237	12712.3875
782.27321	11815.7875
786.15132	11044.5875
790.02671	10575.1875
793.89938	10370.4875
797.76935	10321.0875
801.6366	10297.6875
805.50115	10286.2875
809.36299	10242.6875
813.22213	10148.7875
817.07857	10136.0875
820.93231	10089.6875
824.78336	10070.7875
828.63172	10053.6875
832.47738	10048.0875
836.32036	10055.1875
840.16066	10085.1875
843.99827	10071.6875
847.8332	10045.1875
851.66546	10034.8875
855.49504	10030.3875
859.32195	10049.6875
863.1462	10080.2875
866.96777	10065.1875
870.78668	10026.7875
874.60293	10002.9875
878.41652	9992.1875
882.22745	9997.2875
886.03573	10039.3875
889.84136	10086.4875
893.64433	10044.7875
897.44466	9999.0875
901.24235	9935.8875
905.0374	9902.1875
908.8298	9850.1875
912.61957	9862.6875
916.40671	9923.1875
920.19121	10021.0875
923.97308	10108.2875
927.75233	10176.8875
931.52895	10143.1875
935.30295	10090.2875
939.07433	9933.8875
942.84309	9786.5875
946.60924	9685.9875
950.37278	9625.2875
954.13371	9580.6875
957.89203	9552.3875
961.64774	9510.3875
965.40086	9500.8875
969.15137	9437.5875
972.89929	9406.9875
976.64461	9371.5875
980.38733	9362.1875
984.12747	9376.4875
987.86502	9439.3875
991.59999	9540.4875
995.33237	9676.1875
999.06217	9878.9875
1002.78939	10122.4875
1006.51404	10253.6875
1010.23611	10353.1875
1013.95561	10435.4875
1017.67255	10456.6875
1021.38692	10344.3875
1025.09872	10250.1875
1028.80796	10222.3875
1032.51465	10370.1875
1036.21877	10544.0875
1039.92035	10582.4875
1043.61937	10508.4875
1047.31584	10365.2875
1051.00976	10242.3875
1054.70114	10152.1875
1058.38998	10172.2875
1062.07627	10218.3875
1065.76003	10260.4875
1069.44126	10377.9875
1073.11995	10447.2875
1076.79611	10555.2875
1080.46974	10599.3875
1084.14085	10591.4875
1087.80943	10606.2875
1091.47549	10706.5875
1095.13903	10689.2875
1098.80005	10602.8875
1102.45857	10405.2875
1106.11456	10249.2875
1109.76805	10249.2875
1113.41903	10293.2875
1117.06751	10402.2875
1120.71348	10545.4875
1124.35696	10683.9875
1127.99793	10829.9875
1131.63641	10934.7875
1135.2724	10835.4875
1138.90589	10664.2875
1142.5369	10601.3875
1146.16542	10562.7875
1149.79145	10557.3875
1153.415	10586.5875
1157.03607	10695.8875
1160.65467	10938.2875
1164.27079	11359.4875
1167.88443	11878.6875
1171.49561	12510.4875
1175.10432	13378.2875
1178.71056	14429.7875
1182.31434	15425.6875
1185.91565	15935.1875
1189.51451	15857.1875
1193.11091	15405.0875
1196.70485	14761.9875
1200.29634	14166.4875
1203.88538	13695.6875
1207.47197	13317.5875
1211.05612	13004.2875
1214.63782	12763.0875
1218.21708	12623.5875
1221.79391	12546.9875
1225.36829	12474.3875
1228.94024	12371.8875
1232.50976	12141.0875
1236.07685	11925.9875
1239.6415	11815.9875
1243.20374	11775.9875
1246.76355	11793.3875
1250.32093	11931.1875
1253.8759	12156.8875
1257.42845	12408.2875
1260.97859	12720.5875
1264.52631	12983.4875
1268.07163	13273.2875
1271.61453	13629.5875
1275.15503	14034.7875
1278.69312	14394.6875
1282.22882	14727.7875
1285.76211	15043.8875
1289.29301	15435.8875
1292.82151	15959.7875
1296.34761	16683.9875
1299.87133	17603.0875
1303.39266	18654.5875
1306.9116	19814.9875
1310.42815	20997.6875
1313.94233	21751.7875
1317.45412	21740.3875
1320.96354	21257.6875
1324.47058	20640.1875
1327.97525	20087.0875
1331.47754	19677.8875
1334.97747	19540.9875
1338.47502	19562.6875
1341.97022	19476.5875
1345.46305	19314.0875
1348.95352	19116.0875
1352.44163	19126.5875
1355.92738	19497.1875
1359.41078	20338.3875
1362.89183	21185.5875
1366.37053	21088.4875
1369.84688	19493.1875
1373.32088	17376.2875
1376.79254	15801.6875
1380.26186	15089.0875
1383.72883	14911.2875
1387.19347	14861.1875
1390.65578	14722.4875
1394.11575	14672.4875
1397.57339	14900.6875
1401.0287	15327.6875
1404.48168	15796.0875
1407.93234	15996.0875
1411.38068	15964.7875
1414.82669	15633.7875
1418.27039	15088.5875
1421.71177	14481.8875
1425.15083	13920.0875
1428.58758	13567.9875
1432.02203	13548.0875
1435.45416	13738.1875
1438.88399	14080.8875
1442.31151	14371.9875
1445.73673	14614.1875
1449.15965	14809.3875
1452.58027	14984.2875
1455.9986	14999.1875
1459.41463	15020.7875
1462.82837	15150.2875
1466.23982	15459.4875
1469.64898	15774.8875
1473.05586	15985.4875
1476.46045	16088.4875
1479.86276	16052.4875
1483.26279	15907.5875
1486.66054	15809.2875
1490.05602	15742.1875
1493.44922	15734.8875
1496.84016	15729.1875
1500.22882	15794.9875
1503.61521	16158.5875
1506.99934	16703.2875
1510.38121	17278.3875
1513.76081	17476.8875
1517.13816	17132.0875
1520.51324	16362.1875
1523.88607	15646.6875
1527.25665	15200.6875
1530.62498	14979.9875
1533.99105	14913.9875
1537.35488	14848.5875
1540.71647	14754.4875
1544.07581	14608.9875
1547.4329	14412.6875
1550.78776	14220.9875
1554.14038	14092.0875
1557.49077	13967.8875
1560.83892	13927.8875
1564.18484	13916.5875
1567.52853	13906.3875
1570.86999	13981.3875
1574.20922	14210.5875
1577.54624	14358.9875
1580.88103	14371.5875
1584.2136	14359.7875
1587.54395	14600.8875
1590.87208	15192.1875
1594.19801	16104.1875
1597.52172	17137.0875
1600.84321	17700.4875
1604.16251	17300.1875
1607.47959	16151.3875
1610.79447	14752.7875
1614.10715	13447.8875
1617.41763	12405.9875
1620.7259	11677.4875
1624.03199	11295.0875
1627.33587	11241.2875
1630.63757	11501.9875
1633.93707	12069.3875
1637.23439	13013.6875
1640.52951	14423.7875
1643.82246	16129.7875
1647.11321	17525.5875
1650.40179	17913.8875
1653.68819	16920.1875
1656.97241	14933.2875
1660.25446	12896.1875
1663.53433	11385.1875
1666.81203	10498.6875
1670.08756	9908.7875
1673.36092	9581.0875
1676.63211	9380.5875
1679.90115	9244.3875
1683.16801	9103.0875
1686.43272	8957.5875
1689.69527	8893.1875
1692.95567	8811.7875
1696.2139	8722.0875
1699.46999	8672.2875
1702.72392	8620.8875
1705.97571	8629.0875
1709.22535	8654.1875
1712.47284	8642.6875
1715.71819	8653.9875
1718.96139	8664.3875
1722.20246	8657.7875
1725.44139	8596.5875
1728.67818	8558.5875
1731.91284	8516.5875
1735.14537	8489.9875
1738.37576	8470.1875
1741.60403	8450.9875
1744.83017	8422.8875
1748.05418	8421.0875
1751.27607	8409.9875
1754.49584	8399.4875
1757.71349	8371.6875
1760.92903	8348.7875
1764.14244	8302.8875
1767.35375	8288.7875
1770.56294	8240.1875
1773.77002	8230.9875
1776.97499	8220.4875
1780.17785	8226.2875
1783.37861	8219.3875
1786.57727	8245.5875
1789.77382	8199.3875
1792.96828	8185.6875
1796.16064	8180.4875
1799.3509	8183.4875
1802.53907	8134.9875
1805.72514	8134.0875
1808.90913	8135.5875
1812.09102	8097.4875
1815.27083	8051.8875
1818.44856	8063.0875
1821.6242	8045.9875
1824.79776	8033.7875
1827.96924	8033.8875
1831.13864	8026.1875
1834.30597	8027.8875
1837.47122	8021.9875
1840.6344	8038.8875
1843.7955	8027.1875
1846.95454	8010.3875
1850.11151	8028.9875
1853.26642	8023.1875
1856.41926	8023.8875
1859.57004	8047.7875
1862.71876	8028.4875
1865.86542	8031.7875
1869.01003	8011.0875
1872.15258	8012.0875
1875.29308	8013.1875
1878.43152	8008.9875
1881.56792	8006.5875
1884.70227	7999.8875
1887.83457	7981.7875
1890.96482	7982.5875
1894.09304	7982.4875
1897.21921	7971.6875
1900.34335	7967.3875
1903.46544	7973.1875
1906.58551	7960.9875
1909.70353	7925.3875
1912.81953	7956.5875
1915.93349	7938.2875
1919.04543	7932.0875
1922.15534	7892.0875
1925.26322	7872.6875
1928.36908	7857.3875
1931.47292	7847.9875
1934.57473	7829.6875
1937.67453	7816.1875
1940.77232	7790.5875
1943.86808	7776.9875
1946.96184	7742.5875
1950.05358	7718.9875
1953.14331	7699.7875
1956.23103	7659.1875
1959.31675	7664.3875
1962.40046	7639.4875
1965.48217	7617.9875
1968.56188	7594.4875
1971.63959	7567.9875
1974.7153	7553.3875
1977.78901	7532.7875
1980.86073	7496.6875
1983.93046	7479.4875
1986.99819	7457.8875
1990.06394	7448.7875
1993.1277	7415.2875
1996.18947	7404.0875
1999.24925	7414.2875
2002.30706	7366.8875
2005.36288	7351.5875
2008.41672	7328.7875
2011.46859	7309.0875
2014.51848	7308.3875
2017.56639	7288.2875
2020.61233	7252.8875
2023.6563	7259.6875
2026.6983	7235.8875
2029.73833	7217.2875
2032.7764	7204.7875
2035.8125	7190.7875
2038.84664	7197.8875
2041.87881	7173.2875
2044.90903	7155.4875
2047.93729	7133.2875
2050.96359	7136.9875
2053.98794	7122.0875
2057.01034	7140.8875
2060.03078	7120.8875
2063.04927	7121.5875
2066.06582	7115.0875
2069.08042	7126.1875
2072.09307	7118.8875
2075.10378	7104.6875
2078.11255	7115.7875
2081.11938	7111.0875
2084.12426	7085.4875
2087.12722	7082.8875
2090.12824	7076.1875
2093.12732	7098.7875
2096.12447	7085.4875
2099.11969	7080.9875
2102.11299	7086.2875
2105.10435	7086.2875
2108.09379	7095.9875
2111.08131	7103.9875
2114.0669	7097.6875
2117.05057	7130.9875
2120.03233	7108.7875
2123.01216	7132.5875
2125.99008	7143.9875
2128.96609	7143.8875
2131.94018	7144.0875
2134.91236	7140.4875
2137.88263	7147.4875
2140.851	7147.2875
2143.81746	7155.3875
2146.78201	7158.9875
2149.74466	7166.9875
2152.7054	7156.4875
2155.66425	7145.7875
2158.6212	7152.2875
2161.57625	7157.0875
2164.52941	7160.1875
2167.48067	7135.7875
2170.43004	7151.7875
2173.37752	7144.8875
2176.32311	7156.5875
2179.26681	7150.6875
2182.20863	7164.0875
2185.14856	7151.8875
2188.08661	7158.6875
2191.02278	7165.0875
2193.95707	7162.0875
2196.88948	7154.4875
2199.82001	7143.6875
2202.74867	7149.7875
2205.67545	7139.4875
2208.60037	7127.3875
2211.52341	7124.5875
2214.44458	7117.4875
2217.36388	7108.3875
2220.28132	7085.9875
2223.1969	7102.8875
2226.11061	7082.4875
2229.02246	7070.4875
2231.93245	7068.5875
2234.84058	7050.7875
2237.74686	7039.2875
2240.65128	7018.1875
2243.55385	7003.4875
2246.45456	6995.8875
2249.35343	6975.0875
2252.25044	6959.6875
2255.14561	6960.5875
2258.03893	6961.7875
2260.93041	6943.8875
2263.82004	6936.5875
2266.70783	6922.4875
2269.59378	6901.0875
2272.4779	6867.9875
2275.36017	6886.1875
2278.24061	6869.3875
2281.11922	6855.3875
2283.996	6847.4875
2286.87094	6824.5875
2289.74405	6809.9875
2292.61534	6813.2875
2295.4848	6812.4875
2298.35243	6815.3875
2301.21824	6812.4875
2304.08223	6824.8875
2306.94439	6812.7875
2309.80474	6823.9875
2312.66327	6805.0875
2315.51999	6810.3875
2318.37489	6814.7875
2321.22797	6813.0875
2324.07925	6811.1875
2326.92871	6781.1875
2329.77637	6783.5875
2332.62222	6770.7875
2335.46626	6757.0875
2338.3085	6764.9875
2341.14893	6762.7875
2343.98756	6773.2875
2346.8244	6751.9875
2349.65943	6744.0875
2352.49267	6746.1875
2355.32411	6765.7875
2358.15376	6746.0875
2360.98161	6755.9875
2363.80768	6758.1875
2366.63195	6750.2875
2369.45444	6738.2875
2372.27514	6740.7875
2375.09405	6724.5875
2377.91118	6726.3875
2380.72652	6686.6875
2383.54009	6667.1875
2386.35187	6681.0875
2389.16188	6656.3875
2391.97011	6622.5875
2394.77657	6633.2875
2397.58125	6611.6875
2400.38416	6608.8875
2403.18529	6607.2875
2405.98466	6588.0875
2408.78226	6582.4875
2411.57809	6565.1875
2414.37216	6555.7875
2417.16446	6547.9875
2419.955	6539.3875
2422.74378	6537.6875
2425.5308	6537.6875
2428.31606	6544.8875
2431.09956	6511.1875
2433.88131	6507.9875
2436.6613	6524.3875
2439.43954	6525.6875
2442.21603	6511.3875
2444.99077	6514.5875
2447.76377	6526.4875
2450.53501	6511.9875
2453.30451	6510.1875
2456.07226	6512.4875
2458.83827	6510.4875
2461.60254	6502.0875
2464.36507	6508.8875
2467.12586	6508.3875
2469.88492	6498.9875
2472.64224	6521.7875
2475.39782	6520.5875
2478.15167	6496.9875
2480.90379	6485.1875
2483.65417	6505.3875
2486.40283	6492.7875
2489.14976	6531.1875
2491.89497	6503.2875
2494.63845	6491.6875
2497.3802	6506.6875
2500.12024	6493.8875
2502.85855	6498.4875
2505.59514	6511.1875
2508.33002	6489.4875
2511.06318	6489.0875
2513.79462	6481.0875
2516.52435	6468.7875
2519.25237	6441.3875
2521.97867	6463.9875
2524.70327	6449.6875
2527.42616	6444.6875
2530.14734	6443.8875
2532.86681	6437.0875
2535.58458	6431.8875
2538.30065	6434.5875
2541.01501	6426.3875
2543.72768	6419.1875
2546.43864	6424.9875
2549.14791	6393.9875
2551.85548	6396.1875
2554.56136	6391.3875
2557.26554	6396.6875
2559.96803	6401.0875
2562.66883	6368.4875
2565.36794	6365.5875
2568.06536	6368.6875
2570.7611	6351.9875
2573.45514	6349.7875
2576.14751	6353.7875
2578.83819	6342.0875
2581.52719	6344.1875
2584.21451	6332.6875
2586.90015	6329.0875
2589.58411	6328.5875
2592.2664	6317.2875
2594.94701	6306.4875
2597.62594	6307.7875
2600.30321	6302.0875
2602.9788	6293.5875
2605.65273	6275.8875
2608.32498	6295.8875
2610.99557	6297.6875
2613.66449	6273.4875
2616.33175	6272.9875
2618.99734	6287.2875
2621.66128	6287.7875
2624.32355	6282.3875
2626.98416	6283.3875
2629.64311	6285.8875
2632.30041	6294.5875
2634.95605	6270.8875
2637.61004	6256.2875
2640.26238	6258.1875
2642.91306	6258.6875
2645.56209	6236.1875
2648.20948	6256.3875
2650.85521	6266.7875
2653.4993	6251.7875
2656.14175	6243.4875
2658.78255	6262.6875
2661.42171	6268.9875
2664.05923	6281.0875
2666.6951	6286.2875
2669.32934	6266.0875
2671.96194	6268.9875
2674.59291	6261.1875
2677.22224	6257.0875
2679.84993	6266.9875
2682.476	6258.5875
2685.10043	6265.8875
2687.72324	6258.6875
2690.34441	6268.5875
2692.96396	6264.5875
2695.58188	6255.1875
2698.19818	6278.0875
2700.81285	6279.3875
2703.4259	6248.7875
2706.03733	6235.0875
2708.64714	6254.4875
2711.25533	6261.7875
2713.86191	6250.8875
2716.46687	6281.5875
2719.07021	6246.7875
2721.67194	6276.8875
2724.27206	6273.4875
2726.87057	6281.7875
2729.46747	6272.7875
2732.06276	6292.2875
2734.65644	6300.8875
2737.24852	6300.1875
2739.83899	6296.8875
2742.42786	6281.2875
2745.01513	6275.2875
2747.60079	6275.7875
2750.18486	6272.1875
2752.76733	6272.2875
2755.3482	6260.9875
2757.92747	6279.0875
2760.50515	6269.6875
2763.08123	6274.3875
2765.65573	6270.6875
2768.22863	6275.2875
2770.79994	6254.8875
2773.36967	6250.7875
2775.9378	6258.6875
2778.50435	6264.1875
2781.06932	6254.0875
2783.6327	6250.6875
2786.1945	6267.5875
2788.75471	6235.6875
2791.31335	6242.7875
2793.87041	6223.2875
2796.42589	6209.4875
2798.97979	6212.8875
2801.53212	6218.9875
2804.08288	6217.4875
2806.63206	6198.4875
2809.17967	6188.0875
2811.72571	6193.1875
2814.27018	6176.7875
2816.81308	6160.4875
2819.35442	6167.2875
2821.89419	6148.0875
2824.43239	6150.9875
2826.96904	6152.3875
2829.50412	6155.0875
2832.03763	6140.0875
2834.56959	6147.1875
2837.1	6146.2875
2839.62884	6154.7875
2842.15613	6176.1875
2844.68186	6197.5875
2847.20604	6199.9875
2849.72867	6214.3875
2852.24974	6232.6875
2854.76927	6225.0875
2857.28724	6203.6875
2859.80367	6207.0875
2862.31855	6197.3875
2864.83189	6196.2875
2867.34368	6190.0875
2869.85393	6190.4875
2872.36264	6184.8875
2874.8698	6178.8875
2877.37543	6192.6875
2879.87952	6186.4875
2882.38207	6189.2875
2884.88308	6179.2875
2887.38256	6202.1875
2889.88051	6193.4875
2892.37692	6212.8875
2894.8718	6230.8875
2897.36515	6229.1875
2899.85698	6246.5875
2902.34727	6269.1875
2904.83604	6272.6875
2907.32328	6264.5875
2909.809	6261.8875
2912.29319	6289.8875
2914.77587	6298.2875
2917.25702	6307.8875
2919.73665	6303.2875
2922.21476	6288.5875
2924.69136	6293.3875
2927.16644	6307.5875
2929.64	6300.9875
2932.11205	6314.1875
2934.58258	6280.8875
2937.05161	6298.8875
2939.51912	6287.9875
2941.98513	6268.7875
2944.44962	6236.7875
2946.91261	6230.4875
2949.37409	6247.1875
2951.83407	6212.8875
2954.29254	6199.6875
2956.74951	6174.1875
2959.20498	6189.8875
2961.65895	6184.2875
2964.11142	6178.8875
2966.56239	6157.2875
2969.01186	6137.9875
2971.45984	6111.1875
2973.90632	6121.6875
2976.35131	6086.7875
2978.7948	6086.5875
2981.23681	6065.2875
2983.67732	6058.3875
2986.11635	6042.7875
2988.55388	6046.7875
2990.98993	5997.0875
2993.4245	6011.3875
2995.85758	5994.3875
2998.28917	5999.5875
3000.71928	5988.2875
3003.14791	5956.6875
3005.57506	5954.7875
3008.00073	5944.1875
3010.42493	5932.2875
3012.84764	5952.6875
3015.26888	5941.7875
3017.68865	5930.9875
3020.10694	5923.8875
3022.52376	5908.8875
3024.9391	5892.9875
3027.35298	5888.4875
3029.76539	5884.2875
3032.17632	5885.5875
3034.5858	5871.6875
3036.9938	5870.8875
3039.40034	5875.0875
3041.80542	5880.2875
3044.20903	5869.9875
3046.61118	5867.2875
3049.01187	5839.2875
3051.4111	5875.3875
3053.80888	5851.7875
3056.20519	5847.3875
3058.60005	5830.8875
3060.99345	5823.4875
3063.3854	5811.2875
3065.7759	5778.2875
3068.16494	5785.0875
3070.55254	5781.3875
3072.93868	5762.8875
3075.32338	5765.9875
3077.70662	5763.7875
3080.08842	5739.8875
3082.46878	5746.7875
3084.84769	5743.2875
3087.22515	5745.4875
3089.60118	5738.8875
3091.97576	5748.8875
3094.3489	5760.4875
3096.72061	5772.4875
3099.09087	5767.5875
3101.4597	5754.0875
3103.82709	5775.3875
3106.19305	5763.8875
3108.55757	5770.4875
3110.92066	5752.7875
3113.28232	5731.7875
3115.64255	5725.7875
3118.00134	5748.1875
3120.35871	5734.3875
3122.71466	5722.9875
3125.06917	5714.6875
3127.42226	5708.8875
3129.77393	5723.2875
3132.12417	5712.7875
3134.47299	5712.5875
3136.82039	5714.2875
3139.16636	5716.8875
3141.51092	5726.3875
3143.85406	5737.7875
3146.19579	5733.2875
3148.53609	5737.9875
3150.87499	5765.4875
3153.21246	5752.0875
3155.54853	5767.3875
3157.88318	5772.8875
3160.21642	5784.0875
3162.54826	5789.8875
3164.87868	5805.3875
3167.2077	5789.1875
3169.5353	5815.0875
3171.86151	5813.4875
3174.18631	5786.9875
3176.5097	5814.1875
3178.83169	5786.9875
3181.15228	5799.1875
3183.47147	5798.0875
3185.78926	5800.7875
3188.10565	5793.8875
3190.42065	5813.1875
3192.73424	5811.1875
3195.04645	5802.0875
3197.35725	5801.7875
3199.66667	5815.7875
3201.97469	5933.4875
3204.28132	5944.1875
3206.58656	5835.4875
3208.8904	5829.8875
3211.19287	5836.8875
3213.49394	5843.0875
3215.79363	5848.8875
3218.09193	5855.3875
3220.38884	5843.2875
3222.68438	5860.2875
3224.97853	5844.2875
3227.2713	5847.8875
3229.56269	5855.4875
3231.8527	5874.4875
3234.14133	5868.7875
3236.42858	5840.5875
3238.71446	5817.8875
3240.99896	5838.1875
3243.28209	5827.7875
3245.56384	5831.2875
3247.84423	5819.1875
3250.12324	5813.3875
3252.40088	5831.3875
3254.67715	5819.8875
3256.95205	5814.5875
3259.22558	5818.9875
3261.49775	5807.4875
3263.76855	5799.9875
3266.03799	5776.5875
3268.30606	5791.9875
3270.57277	5777.0875
3272.83812	5766.6875
3275.10211	5752.4875
3277.36474	5736.9875
3279.62601	5753.8875
3281.88593	5735.3875
3284.14448	5725.8875
3286.40168	5743.8875
3288.65753	5723.4875
3290.91202	5745.0875
3293.16516	5728.0875
3295.41695	5737.5875
3297.66738	5682.2875
3299.91647	5660.2875
3302.16421	5634.5875
3304.4106	5601.7875
3306.65564	5581.9875
3308.89933	5557.1875
3311.14169	5529.5875
3313.38269	5498.3875
3315.62236	5449.0875
3317.86068	5404.5875
3320.09766	5376.4875
3322.3333	5354.2875
3324.5676	5326.2875
3326.80056	5243.2875
3329.03219	5199.7875
3331.26248	2.8875
3333.49143	-0.5125
3335.71905	-1.0125
