Data from AgNPs_FTO_APTES_UA_1uM_CRN_10uM_R6G_20uM_NaF_0.1M_Addition_RamanShift__34__15-37-29-713.txt Node

Date: Thu Jan 27 15:37:29 GMT 2022
User: TCL
Spectrometer: QEP01345
Trigger mode: 4
Integration Time (sec): 7.000000E0
Scans to average: 10
Electric dark correction enabled: true
Nonlinearity correction enabled: false
Boxcar width: 0
XAxis mode: Raman Shifts
Number of Pixels in Spectrum: 1044
>>>>>Begin Spectral Data<<<<<
46.04893	1.775
50.45542	-0.225
54.85868	-1.725
59.25871	-0.925
63.6555	50.175
68.04907	54.175
72.43941	56.875
76.82654	56.075
81.21044	61.675
85.59113	62.075
89.96862	66.675
94.34289	67.375
98.71396	68.975
103.08183	71.275
107.4465	75.775
111.80798	74.975
116.16626	73.675
120.52136	83.875
124.87327	81.875
129.222	79.175
133.56755	88.875
137.90993	87.175
142.24913	95.875
146.58517	105.975
150.91804	121.775
155.24774	137.975
159.57429	163.375
163.89768	208.275
168.21792	271.175
172.53501	365.975
176.84895	500.775
181.15975	700.975
185.46741	977.275
189.77193	1343.975
194.07331	1800.675
198.37157	2321.275
202.6667	2862.375
206.9587	3411.675
211.24758	3946.875
215.53334	4480.775
219.81599	5035.175
224.09553	5672.275
228.37195	6358.275
232.64527	7134.275
236.91549	7930.375
241.18261	8711.375
245.44663	9454.075
249.70755	10142.575
253.96539	10751.075
258.22014	11241.275
262.4718	11683.375
266.72039	11987.075
270.96589	12124.175
275.20832	12136.075
279.44768	12064.275
283.68397	11950.275
287.91719	11811.275
292.14735	11724.575
296.37445	11678.675
300.59849	11728.475
304.81948	11819.075
309.03742	11838.475
313.25231	11782.875
317.46415	11574.675
321.67296	11347.275
325.87872	11131.275
330.08145	11050.375
334.28114	11048.375
338.47781	11128.575
342.67145	11279.075
346.86207	11476.775
351.04966	11681.875
355.23424	11945.375
359.4158	12164.975
363.59435	12340.175
367.76989	12455.075
371.94243	12532.575
376.11196	12611.975
380.27849	12699.775
384.44203	12792.375
388.60257	12834.875
392.76012	12945.275
396.91468	13062.775
401.06626	13258.175
405.21485	13389.675
409.36047	13386.675
413.50311	13228.575
417.64277	13067.575
421.77947	13030.775
425.9132	13050.075
430.04396	13119.975
434.17176	13221.075
438.2966	13332.575
442.41849	13632.175
446.53742	14034.975
450.6534	14485.575
454.76644	14833.275
458.87653	14926.575
462.98368	14831.075
467.08789	14630.475
471.18916	14390.475
475.2875	14149.275
479.38291	13982.875
483.4754	13888.275
487.56496	13746.275
491.6516	13614.175
495.73531	13484.675
499.81612	13442.775
503.89401	13498.575
507.96899	13485.375
512.04106	13476.275
516.11023	13405.875
520.1765	13384.375
524.23987	13368.075
528.30034	13330.975
532.35792	13275.775
536.41261	13133.175
540.46441	12990.075
544.51333	12943.475
548.55936	13019.375
552.60252	13237.975
556.64279	13436.075
560.6802	13596.475
564.71473	13640.875
568.7464	13788.875
572.7752	14002.575
576.80114	14130.675
580.82422	14215.475
584.84444	14467.675
588.86181	14846.775
592.87633	15277.575
596.888	15582.475
600.89682	15656.575
604.9028	15954.075
608.90594	17149.575
612.90624	18362.175
616.90371	17545.575
620.89834	15179.275
624.89015	14161.475
628.87913	14068.275
632.86528	13978.875
636.84862	13788.075
640.82913	13542.975
644.80683	13233.375
648.78172	13025.975
652.75379	12995.475
656.72306	13176.075
660.68952	13407.975
664.65319	13363.575
668.61405	13202.875
672.57211	13124.075
676.52738	13131.875
680.47986	13121.375
684.42955	13053.075
688.37646	13025.775
692.32058	13085.175
696.26192	13284.175
700.20048	13430.275
704.13626	13476.775
708.06928	13362.475
711.99952	13246.075
715.927	13265.075
719.85171	13332.875
723.77365	13306.175
727.69284	13155.375
731.60928	13007.875
735.52295	12976.775
739.43388	13024.175
743.34206	13034.475
747.24749	13083.475
751.15017	13157.875
755.05012	13336.175
758.94733	13635.775
762.8418	14118.875
766.73354	14939.475
770.62254	15751.575
774.50882	16047.975
778.39237	15586.075
782.27321	14756.275
786.15132	13956.275
790.02671	13488.875
793.89938	13341.775
797.76935	13274.775
801.6366	13264.175
805.50115	13206.175
809.36299	13140.275
813.22213	13067.275
817.07857	13043.375
820.93231	13031.875
824.78336	13026.875
828.63172	13070.975
832.47738	13136.175
836.32036	13197.775
840.16066	13333.975
843.99827	13392.875
847.8332	13344.275
851.66546	13199.975
855.49504	13165.275
859.32195	13134.575
863.1462	13120.275
866.96777	13057.275
870.78668	12992.075
874.60293	12980.875
878.41652	12984.275
882.22745	13020.275
886.03573	13110.275
889.84136	13114.775
893.64433	12996.875
897.44466	12959.675
901.24235	12868.475
905.0374	12847.575
908.8298	12866.575
912.61957	12914.775
916.40671	13038.175
920.19121	13220.975
923.97308	13396.475
927.75233	13542.775
931.52895	13560.875
935.30295	13440.075
939.07433	13258.275
942.84309	13097.875
946.60924	13016.375
950.37278	12989.275
954.13371	12933.075
957.89203	12832.575
961.64774	12741.475
965.40086	12701.775
969.15137	12702.675
972.89929	12692.975
976.64461	12689.975
980.38733	12751.075
984.12747	12855.775
987.86502	13006.775
991.59999	13248.575
995.33237	13563.375
999.06217	14089.275
1002.78939	14694.875
1006.51404	14947.075
1010.23611	14961.775
1013.95561	14985.175
1017.67255	14916.475
1021.38692	14801.975
1025.09872	14772.275
1028.80796	15181.475
1032.51465	16082.275
1036.21877	16894.375
1039.92035	16991.775
1043.61937	16540.975
1047.31584	15810.475
1051.00976	15076.975
1054.70114	14612.675
1058.38998	14425.975
1062.07627	14338.075
1065.76003	14238.075
1069.44126	14230.375
1073.11995	14317.475
1076.79611	14484.375
1080.46974	14625.175
1084.14085	14730.175
1087.80943	14845.775
1091.47549	14839.775
1095.13903	14755.375
1098.80005	14558.275
1102.45857	14375.675
1106.11456	14300.075
1109.76805	14285.475
1113.41903	14365.675
1117.06751	14429.075
1120.71348	14483.575
1124.35696	14587.975
1127.99793	14700.275
1131.63641	14751.975
1135.2724	14636.775
1138.90589	14540.475
1142.5369	14443.975
1146.16542	14442.375
1149.79145	14458.175
1153.415	14535.875
1157.03607	14627.675
1160.65467	14860.475
1164.27079	15328.075
1167.88443	15916.675
1171.49561	16771.475
1175.10432	17801.575
1178.71056	19115.475
1182.31434	20424.175
1185.91565	21157.075
1189.51451	21110.475
1193.11091	20397.475
1196.70485	19503.875
1200.29634	18786.375
1203.88538	18359.475
1207.47197	18029.675
1211.05612	17674.975
1214.63782	17375.375
1218.21708	17263.975
1221.79391	17267.475
1225.36829	17250.475
1228.94024	17028.475
1232.50976	16578.275
1236.07685	16283.075
1239.6415	16096.475
1243.20374	16082.775
1246.76355	16285.675
1250.32093	16548.175
1253.8759	16926.475
1257.42845	17406.275
1260.97859	17826.375
1264.52631	18206.275
1268.07163	18689.875
1271.61453	19301.975
1275.15503	19937.675
1278.69312	20557.275
1282.22882	20970.175
1285.76211	21291.075
1289.29301	21641.175
1292.82151	22177.175
1296.34761	23059.375
1299.87133	24401.275
1303.39266	26027.675
1306.9116	27815.875
1310.42815	29292.875
1313.94233	29849.275
1317.45412	29354.775
1320.96354	28314.875
1324.47058	27077.975
1327.97525	26065.475
1331.47754	25272.975
1334.97747	24779.175
1338.47502	24527.275
1341.97022	24228.875
1345.46305	23909.275
1348.95352	23729.775
1352.44163	23995.875
1355.92738	24951.975
1359.41078	26502.475
1362.89183	27849.375
1366.37053	27436.075
1369.84688	25300.275
1373.32088	22726.375
1376.79254	20927.775
1380.26186	20219.975
1383.72883	20065.975
1387.19347	19988.575
1390.65578	19711.175
1394.11575	19575.575
1397.57339	19625.675
1401.0287	19910.075
1404.48168	20194.575
1407.93234	20191.475
1411.38068	19993.775
1414.82669	19622.775
1418.27039	19109.475
1421.71177	18528.375
1425.15083	18067.575
1428.58758	17832.375
1432.02203	17883.175
1435.45416	18225.075
1438.88399	18639.375
1442.31151	18944.175
1445.73673	19114.875
1449.15965	19269.875
1452.58027	19278.475
1455.9986	19219.475
1459.41463	19152.775
1462.82837	19334.975
1466.23982	19726.075
1469.64898	20133.975
1473.05586	20414.175
1476.46045	20598.075
1479.86276	20625.275
1483.26279	20499.675
1486.66054	20398.375
1490.05602	20388.975
1493.44922	20514.475
1496.84016	20597.375
1500.22882	20761.975
1503.61521	21097.975
1506.99934	21639.175
1510.38121	22205.175
1513.76081	22471.275
1517.13816	22174.975
1520.51324	21424.075
1523.88607	20691.575
1527.25665	20254.375
1530.62498	20061.075
1533.99105	19998.375
1537.35488	19896.475
1540.71647	19747.075
1544.07581	19444.575
1547.4329	19193.075
1550.78776	18976.175
1554.14038	18832.975
1557.49077	18688.975
1560.83892	18573.275
1564.18484	18507.875
1567.52853	18526.675
1570.86999	18629.975
1574.20922	18863.275
1577.54624	18986.275
1580.88103	19034.175
1584.2136	19187.175
1587.54395	19770.175
1590.87208	20803.375
1594.19801	22162.975
1597.52172	23432.575
1600.84321	23838.575
1604.16251	22869.275
1607.47959	21188.075
1610.79447	19293.975
1614.10715	17763.975
1617.41763	16688.075
1620.7259	16021.175
1624.03199	15767.575
1627.33587	15922.775
1630.63757	16369.975
1633.93707	17123.375
1637.23439	18211.175
1640.52951	19703.275
1643.82246	21399.675
1647.11321	22784.875
1650.40179	23026.275
1653.68819	21667.375
1656.97241	19348.875
1660.25446	17099.475
1663.53433	15528.175
1666.81203	14537.675
1670.08756	13948.375
1673.36092	13584.875
1676.63211	13357.375
1679.90115	13192.175
1683.16801	13044.875
1686.43272	12960.775
1689.69527	12877.875
1692.95567	12818.675
1696.2139	12754.375
1699.46999	12703.375
1702.72392	12641.875
1705.97571	12669.675
1709.22535	12678.875
1712.47284	12711.875
1715.71819	12731.275
1718.96139	12716.875
1722.20246	12712.275
1725.44139	12699.975
1728.67818	12643.375
1731.91284	12580.175
1735.14537	12536.075
1738.37576	12486.175
1741.60403	12446.575
1744.83017	12415.275
1748.05418	12383.775
1751.27607	12361.075
1754.49584	12337.575
1757.71349	12331.475
1760.92903	12302.875
1764.14244	12301.775
1767.35375	12297.375
1770.56294	12312.075
1773.77002	12302.075
1776.97499	12315.675
1780.17785	12335.575
1783.37861	12314.475
1786.57727	12327.875
1789.77382	12316.775
1792.96828	12327.675
1796.16064	12268.075
1799.3509	12282.275
1802.53907	12264.875
1805.72514	12243.375
1808.90913	12233.675
1812.09102	12191.175
1815.27083	12178.075
1818.44856	12196.375
1821.6242	12180.875
1824.79776	12158.875
1827.96924	12137.875
1831.13864	12139.575
1834.30597	12143.775
1837.47122	12112.775
1840.6344	12116.775
1843.7955	12111.475
1846.95454	12090.875
1850.11151	12129.975
1853.26642	12124.475
1856.41926	12136.475
1859.57004	12155.875
1862.71876	12114.975
1865.86542	12120.575
1869.01003	12120.375
1872.15258	12129.875
1875.29308	12131.875
1878.43152	12095.675
1881.56792	12092.575
1884.70227	12102.175
1887.83457	12080.775
1890.96482	12068.175
1894.09304	12090.075
1897.21921	12081.475
1900.34335	12070.075
1903.46544	12082.875
1906.58551	12083.075
1909.70353	12075.375
1912.81953	12066.975
1915.93349	12054.975
1919.04543	12059.375
1922.15534	12029.075
1925.26322	12034.575
1928.36908	12014.175
1931.47292	12007.875
1934.57473	11969.475
1937.67453	11960.775
1940.77232	11946.275
1943.86808	11897.675
1946.96184	11860.175
1950.05358	11826.275
1953.14331	11831.575
1956.23103	11766.575
1959.31675	11757.175
1962.40046	11736.375
1965.48217	11710.175
1968.56188	11692.275
1971.63959	11668.475
1974.7153	11637.075
1977.78901	11610.575
1980.86073	11570.875
1983.93046	11539.175
1986.99819	11509.675
1990.06394	11481.275
1993.1277	11448.675
1996.18947	11407.375
1999.24925	11396.175
2002.30706	11358.175
2005.36288	11343.075
2008.41672	11338.875
2011.46859	11276.175
2014.51848	11267.275
2017.56639	11269.375
2020.61233	11261.275
2023.6563	11261.175
2026.6983	11210.275
2029.73833	11221.875
2032.7764	11200.075
2035.8125	11171.975
2038.84664	11169.975
2041.87881	11174.075
2044.90903	11158.975
2047.93729	11146.075
2050.96359	11136.775
2053.98794	11101.675
2057.01034	11129.175
2060.03078	11114.875
2063.04927	11111.275
2066.06582	11122.475
2069.08042	11127.075
2072.09307	11095.375
2075.10378	11091.275
2078.11255	11084.075
2081.11938	11084.375
2084.12426	11095.975
2087.12722	11066.575
2090.12824	11077.275
2093.12732	11091.975
2096.12447	11073.675
2099.11969	11072.875
2102.11299	11124.975
2105.10435	11109.775
2108.09379	11131.075
2111.08131	11158.075
2114.0669	11147.975
2117.05057	11164.475
2120.03233	11173.275
2123.01216	11173.075
2125.99008	11188.675
2128.96609	11220.975
2131.94018	11219.175
2134.91236	11229.375
2137.88263	11246.275
2140.851	11263.275
2143.81746	11271.475
2146.78201	11310.175
2149.74466	11295.375
2152.7054	11331.075
2155.66425	11321.375
2158.6212	11321.875
2161.57625	11313.175
2164.52941	11328.675
2167.48067	11336.575
2170.43004	11311.175
2173.37752	11314.175
2176.32311	11320.375
2179.26681	11356.775
2182.20863	11334.275
2185.14856	11371.475
2188.08661	11370.775
2191.02278	11405.775
2193.95707	11368.875
2196.88948	11392.175
2199.82001	11389.075
2202.74867	11418.475
2205.67545	11421.875
2208.60037	11394.175
2211.52341	11406.575
2214.44458	11401.275
2217.36388	11382.475
2220.28132	11377.175
2223.1969	11382.275
2226.11061	11358.475
2229.02246	11343.075
2231.93245	11323.375
2234.84058	11309.475
2237.74686	11306.475
2240.65128	11300.075
2243.55385	11275.475
2246.45456	11260.575
2249.35343	11238.775
2252.25044	11240.075
2255.14561	11238.775
2258.03893	11209.975
2260.93041	11183.375
2263.82004	11149.475
2266.70783	11175.675
2269.59378	11138.975
2272.4779	11122.475
2275.36017	11108.075
2278.24061	11076.775
2281.11922	11106.375
2283.996	11094.575
2286.87094	11115.875
2289.74405	11068.275
2292.61534	11056.175
2295.4848	11083.775
2298.35243	11113.175
2301.21824	11083.775
2304.08223	11109.475
2306.94439	11140.275
2309.80474	11159.075
2312.66327	11166.475
2315.51999	11186.675
2318.37489	11168.175
2321.22797	11163.675
2324.07925	11167.575
2326.92871	11158.075
2329.77637	11131.475
2332.62222	11145.575
2335.46626	11144.975
2338.3085	11137.575
2341.14893	11125.475
2343.98756	11169.075
2346.8244	11161.375
2349.65943	11186.375
2352.49267	11154.475
2355.32411	11140.075
2358.15376	11109.775
2360.98161	11107.075
2363.80768	11093.375
2366.63195	11097.175
2369.45444	11087.475
2372.27514	11053.375
2375.09405	11039.375
2377.91118	11020.075
2380.72652	11033.075
2383.54009	11019.275
2386.35187	10987.075
2389.16188	10966.275
2391.97011	10978.175
2394.77657	10955.275
2397.58125	10950.275
2400.38416	10926.075
2403.18529	10950.675
2405.98466	10919.175
2408.78226	10890.375
2411.57809	10892.675
2414.37216	10867.675
2417.16446	10870.275
2419.955	10845.575
2422.74378	10835.675
2425.5308	10839.875
2428.31606	10849.075
2431.09956	10847.275
2433.88131	10832.975
2436.6613	10841.475
2439.43954	10839.075
2442.21603	10856.075
2444.99077	10841.775
2447.76377	10844.975
2450.53501	10828.375
2453.30451	10824.575
2456.07226	10832.775
2458.83827	10802.875
2461.60254	10825.475
2464.36507	10824.475
2467.12586	10803.375
2469.88492	10829.175
2472.64224	10857.175
2475.39782	10866.775
2478.15167	10852.475
2480.90379	10844.275
2483.65417	10888.175
2486.40283	10897.275
2489.14976	10931.175
2491.89497	10914.175
2494.63845	10920.375
2497.3802	10910.375
2500.12024	10912.575
2502.85855	10930.875
2505.59514	10926.175
2508.33002	10904.875
2511.06318	10917.275
2513.79462	10897.775
2516.52435	10895.175
2519.25237	10887.075
2521.97867	10893.175
2524.70327	10914.275
2527.42616	10860.275
2530.14734	10872.575
2532.86681	10887.075
2535.58458	10879.575
2538.30065	10873.575
2541.01501	10837.075
2543.72768	10886.075
2546.43864	10860.775
2549.14791	10844.975
2551.85548	10836.575
2554.56136	10815.275
2557.26554	10815.275
2559.96803	10839.275
2562.66883	10845.175
2565.36794	10859.975
2568.06536	10824.075
2570.7611	10846.075
2573.45514	10822.875
2576.14751	10826.875
2578.83819	10850.075
2581.52719	10853.775
2584.21451	10843.375
2586.90015	10840.675
2589.58411	10808.075
2592.2664	10801.475
2594.94701	10811.475
2597.62594	10809.475
2600.30321	10802.775
2602.9788	10816.575
2605.65273	10808.775
2608.32498	10824.175
2610.99557	10811.875
2613.66449	10813.775
2616.33175	10804.675
2618.99734	10807.175
2621.66128	10807.175
2624.32355	10825.175
2626.98416	10800.675
2629.64311	10843.375
2632.30041	10843.575
2634.95605	10785.675
2637.61004	10792.575
2640.26238	10792.075
2642.91306	10775.275
2645.56209	10726.075
2648.20948	10754.975
2650.85521	10726.075
2653.4993	10735.675
2656.14175	10747.175
2658.78255	10778.075
2661.42171	10763.275
2664.05923	10799.375
2666.6951	10793.675
2669.32934	10833.575
2671.96194	10838.375
2674.59291	10815.675
2677.22224	10810.775
2679.84993	10809.675
2682.476	10808.275
2685.10043	10796.775
2687.72324	10751.075
2690.34441	10765.375
2692.96396	10774.375
2695.58188	10788.875
2698.19818	10769.175
2700.81285	10797.675
2703.4259	10766.375
2706.03733	10782.075
2708.64714	10781.475
2711.25533	10814.575
2713.86191	10799.175
2716.46687	10844.975
2719.07021	10837.075
2721.67194	10877.575
2724.27206	10866.775
2726.87057	10886.975
2729.46747	10884.575
2732.06276	10875.175
2734.65644	10896.875
2737.24852	10889.375
2739.83899	10876.275
2742.42786	10897.775
2745.01513	10854.375
2747.60079	10880.775
2750.18486	10874.875
2752.76733	10882.675
2755.3482	10855.475
2757.92747	10868.875
2760.50515	10859.775
2763.08123	10849.675
2765.65573	10870.075
2768.22863	10871.775
2770.79994	10877.175
2773.36967	10881.575
2775.9378	10853.475
2778.50435	10897.475
2781.06932	10886.375
2783.6327	10859.375
2786.1945	10864.375
2788.75471	10867.575
2791.31335	10830.375
2793.87041	10830.575
2796.42589	10828.075
2798.97979	10815.675
2801.53212	10811.375
2804.08288	10785.375
2806.63206	10769.575
2809.17967	10746.975
2811.72571	10729.575
2814.27018	10726.475
2816.81308	10731.075
2819.35442	10725.775
2821.89419	10720.975
2824.43239	10696.075
2826.96904	10708.575
2829.50412	10734.575
2832.03763	10715.575
2834.56959	10702.375
2837.1	10693.475
2839.62884	10700.175
2842.15613	10705.375
2844.68186	10723.975
2847.20604	10728.275
2849.72867	10721.175
2852.24974	10735.075
2854.76927	10737.775
2857.28724	10708.575
2859.80367	10716.975
2862.31855	10712.775
2864.83189	10704.875
2867.34368	10719.075
2869.85393	10673.875
2872.36264	10711.275
2874.8698	10687.975
2877.37543	10704.975
2879.87952	10717.775
2882.38207	10715.875
2884.88308	10726.175
2887.38256	10728.975
2889.88051	10755.975
2892.37692	10739.075
2894.8718	10748.075
2897.36515	10766.175
2899.85698	10780.775
2902.34727	10824.375
2904.83604	10809.675
2907.32328	10835.375
2909.809	10818.575
2912.29319	10848.875
2914.77587	10865.575
2917.25702	10845.475
2919.73665	10846.175
2922.21476	10874.675
2924.69136	10843.275
2927.16644	10868.575
2929.64	10832.475
2932.11205	10833.675
2934.58258	10782.075
2937.05161	10829.575
2939.51912	10814.375
2941.98513	10825.975
2944.44962	10776.075
2946.91261	10784.775
2949.37409	10782.375
2951.83407	10792.175
2954.29254	10789.675
2956.74951	10765.275
2959.20498	10771.775
2961.65895	10764.475
2964.11142	10776.875
2966.56239	10772.475
2969.01186	10758.175
2971.45984	10764.375
2973.90632	10752.475
2976.35131	10735.375
2978.7948	10720.175
2981.23681	10708.075
2983.67732	10702.475
2986.11635	10707.075
2988.55388	10672.775
2990.98993	10653.775
2993.4245	10656.175
2995.85758	10620.675
2998.28917	10625.675
3000.71928	10580.275
3003.14791	10592.375
3005.57506	10595.175
3008.00073	10614.975
3010.42493	10590.975
3012.84764	10588.175
3015.26888	10574.175
3017.68865	10566.875
3020.10694	10568.075
3022.52376	10548.275
3024.9391	10527.275
3027.35298	10557.375
3029.76539	10538.975
3032.17632	10543.275
3034.5858	10499.375
3036.9938	10513.775
3039.40034	10516.275
3041.80542	10537.675
3044.20903	10510.675
3046.61118	10529.175
3049.01187	10506.775
3051.4111	10519.475
3053.80888	10498.875
3056.20519	10474.975
3058.60005	10456.975
3060.99345	10440.575
3063.3854	10417.475
3065.7759	10412.075
3068.16494	10431.875
3070.55254	10378.075
3072.93868	10362.375
3075.32338	10369.575
3077.70662	10366.475
3080.08842	10338.475
3082.46878	10342.575
3084.84769	10328.575
3087.22515	10344.675
3089.60118	10319.975
3091.97576	10339.475
3094.3489	10359.075
3096.72061	10376.975
3099.09087	10382.375
3101.4597	10372.075
3103.82709	10387.175
3106.19305	10363.475
3108.55757	10380.375
3110.92066	10360.175
3113.28232	10348.475
3115.64255	10331.475
3118.00134	10335.175
3120.35871	10333.175
3122.71466	10317.675
3125.06917	10282.275
3127.42226	10298.175
3129.77393	10289.875
3132.12417	10297.875
3134.47299	10279.375
3136.82039	10319.475
3139.16636	10306.475
3141.51092	10319.275
3143.85406	10334.275
3146.19579	10332.375
3148.53609	10376.075
3150.87499	10375.375
3153.21246	10387.675
3155.54853	10402.675
3157.88318	10385.175
3160.21642	10385.975
3162.54826	10418.175
3164.87868	10391.975
3167.2077	10406.975
3169.5353	10434.175
3171.86151	10445.375
3174.18631	10423.075
3176.5097	10410.175
3178.83169	10419.775
3181.15228	10428.875
3183.47147	10413.975
3185.78926	10408.775
3188.10565	10410.875
3190.42065	10400.975
3192.73424	10453.675
3195.04645	10405.175
3197.35725	10440.475
3199.66667	10431.975
3201.97469	10429.075
3204.28132	10449.175
3206.58656	10454.275
3208.8904	10448.675
3211.19287	10493.075
3213.49394	10481.775
3215.79363	10494.175
3218.09193	10492.975
3220.38884	10507.075
3222.68438	10519.475
3224.97853	10504.675
3227.2713	10516.975
3229.56269	10494.175
3231.8527	10524.675
3234.14133	10506.075
3236.42858	10445.075
3238.71446	10447.375
3240.99896	10447.775
3243.28209	10456.475
3245.56384	10443.775
3247.84423	10423.475
3250.12324	10428.575
3252.40088	10451.275
3254.67715	10454.275
3256.95205	10434.975
3259.22558	10441.775
3261.49775	10446.175
3263.76855	10437.975
3266.03799	10436.875
3268.30606	10445.875
3270.57277	10439.775
3272.83812	10405.475
3275.10211	10377.575
3277.36474	10346.775
3279.62601	10400.375
3281.88593	10353.475
3284.14448	10376.975
3286.40168	10394.775
3288.65753	10419.575
3290.91202	10396.475
3293.16516	10384.675
3295.41695	10341.575
3297.66738	10273.875
3299.91647	10243.775
3302.16421	10163.675
3304.4106	10176.675
3306.65564	10111.375
3308.89933	10084.675
3311.14169	10018.975
3313.38269	9931.375
3315.62236	9893.175
3317.86068	9835.575
3320.09766	9751.275
3322.3333	9724.875
3324.5676	9680.875
3326.80056	9541.375
3329.03219	9483.175
3331.26248	2.275
3333.49143	-0.025
3335.71905	-0.425
