Data from AgNPs_FTO_APTES_UA_1uM_CRN_5uM_R6G_10uM_NaF_0.1M_Addition_RamanShift__32__14-13-29-617.txt Node

Date: Thu Jan 27 14:13:29 GMT 2022
User: TCL
Spectrometer: QEP01345
Trigger mode: 4
Integration Time (sec): 7.000000E0
Scans to average: 10
Electric dark correction enabled: true
Nonlinearity correction enabled: false
Boxcar width: 0
XAxis mode: Raman Shifts
Number of Pixels in Spectrum: 1044
>>>>>Begin Spectral Data<<<<<
46.04893	2
50.45542	1.3
54.85868	-0.9
59.25871	-1.1
63.6555	33.6
68.04907	35.1
72.43941	37.2
76.82654	41.1
81.21044	44.4
85.59113	44.1
89.96862	46.3
94.34289	45.6
98.71396	51.1
103.08183	45.8
107.4465	51.7
111.80798	52.6
116.16626	49.8
120.52136	56.5
124.87327	52.6
129.222	51.2
133.56755	55.6
137.90993	55.1
142.24913	59.1
146.58517	66.8
150.91804	72.1
155.24774	78.5
159.57429	87
163.89768	109.8
168.21792	139.3
172.53501	180.7
176.84895	241.4
181.15975	332.7
185.46741	454
189.77193	622.4
194.07331	830.9
198.37157	1062.3
202.6667	1308.9
206.9587	1557.1
211.24758	1801.8
215.53334	2072.4
219.81599	2364
224.09553	2703.3
228.37195	3068.1
232.64527	3465.9
236.91549	3862.8
241.18261	4222.9
245.44663	4483.7
249.70755	4680
253.96539	4855.8
258.22014	5014.4
262.4718	5188.7
266.72039	5323.6
270.96589	5401.6
275.20832	5421.5
279.44768	5377
283.68397	5287.3
287.91719	5239.5
292.14735	5257.1
296.37445	5364.7
300.59849	5619.2
304.81948	5927.3
309.03742	6140
313.25231	6153.6
317.46415	5824.2
321.67296	5306
325.87872	4881.5
330.08145	4668
334.28114	4639.9
338.47781	4712.6
342.67145	4871.8
346.86207	5114.6
351.04966	5460.6
355.23424	5889.9
359.4158	6207.6
363.59435	6368.6
367.76989	6397
371.94243	6353.6
376.11196	6308.8
380.27849	6243.1
384.44203	6149.7
388.60257	6045.8
392.76012	5976.5
396.91468	6019.1
401.06626	6199.2
405.21485	6330.8
409.36047	6195.9
413.50311	5815.3
417.64277	5451.8
421.77947	5244.9
425.9132	5142.2
430.04396	5107.6
434.17176	5142.5
438.2966	5193.5
442.41849	5326.5
446.53742	5491.6
450.6534	5666.7
454.76644	5758.4
458.87653	5778.9
462.98368	5711.7
467.08789	5612.4
471.18916	5491.4
475.2875	5326.6
479.38291	5216.8
483.4754	5136.8
487.56496	5071.2
491.6516	5020.1
495.73531	4994.2
499.81612	5021.8
503.89401	5084.6
507.96899	5163.3
512.04106	5257.6
516.11023	5363.9
520.1765	5450.6
524.23987	5407.7
528.30034	5302.7
532.35792	5155.2
536.41261	5023.8
540.46441	4864.8
544.51333	4812.6
548.55936	4845.1
552.60252	4963.3
556.64279	5118.2
560.6802	5175.7
564.71473	5291.8
568.7464	5543
572.7752	5713.1
576.80114	5520.5
580.82422	5293.5
584.84444	5194.6
588.86181	5145.3
592.87633	5145
596.888	5202
600.89682	5419.3
604.9028	6136.4
608.90594	8063.1
612.90624	10766.4
616.90371	10580.6
620.89834	7133.7
624.89015	5384.3
628.87913	5057.6
632.86528	5062.2
636.84862	5164.6
640.82913	5108.6
644.80683	4893.8
648.78172	4674.5
652.75379	4721.3
656.72306	4954
660.68952	5276.6
664.65319	5225.7
668.61405	4919.4
672.57211	4741
676.52738	4715.6
680.47986	4716.4
684.42955	4685.4
688.37646	4666.3
692.32058	4667.6
696.26192	4705.2
700.20048	4763.8
704.13626	4806.1
708.06928	4809.8
711.99952	4765.7
715.927	4743.6
719.85171	4755.7
723.77365	4760.5
727.69284	4721.8
731.60928	4670.8
735.52295	4652.4
739.43388	4694.9
743.34206	4710.9
747.24749	4711.6
751.15017	4769.7
755.05012	4871.2
758.94733	5132.2
762.8418	5743.7
766.73354	6818
770.62254	8025.5
774.50882	8659.2
778.39237	8324.4
782.27321	7141.1
786.15132	5936.6
790.02671	5232.9
793.89938	4911.6
797.76935	4786.8
801.6366	4719.2
805.50115	4687.2
809.36299	4648.9
813.22213	4625.5
817.07857	4620.7
820.93231	4619.6
824.78336	4648.4
828.63172	4664.6
832.47738	4677.8
836.32036	4663
840.16066	4635.1
843.99827	4594
847.8332	4565.3
851.66546	4568
855.49504	4568.2
859.32195	4560.5
863.1462	4529.1
866.96777	4523.5
870.78668	4507.1
874.60293	4527.1
878.41652	4526
882.22745	4547.5
886.03573	4597.4
889.84136	4563
893.64433	4543.9
897.44466	4519.7
901.24235	4540.9
905.0374	4513.2
908.8298	4497.7
912.61957	4470.8
916.40671	4498.3
920.19121	4549.6
923.97308	4580.3
927.75233	4640.4
931.52895	4706.3
935.30295	4652.2
939.07433	4511.7
942.84309	4376.7
946.60924	4309.6
950.37278	4270.3
954.13371	4218.1
957.89203	4200.9
961.64774	4193.3
965.40086	4188.8
969.15137	4187.1
972.89929	4160.5
976.64461	4153.9
980.38733	4148.2
984.12747	4150.4
987.86502	4162.7
991.59999	4183.8
995.33237	4233.1
999.06217	4301.2
1002.78939	4392
1006.51404	4522
1010.23611	4647.6
1013.95561	4721.4
1017.67255	4694.6
1021.38692	4630
1025.09872	4545.9
1028.80796	4467.9
1032.51465	4467.1
1036.21877	4510.9
1039.92035	4563.8
1043.61937	4593.7
1047.31584	4593.5
1051.00976	4579.4
1054.70114	4574.2
1058.38998	4532.8
1062.07627	4549.2
1065.76003	4584.7
1069.44126	4615.8
1073.11995	4678.8
1076.79611	4750.8
1080.46974	4827.6
1084.14085	4955.3
1087.80943	5133.9
1091.47549	5205.1
1095.13903	5117.7
1098.80005	4926.5
1102.45857	4733.4
1106.11456	4659
1109.76805	4672.1
1113.41903	4778.2
1117.06751	4965
1120.71348	5176.6
1124.35696	5440
1127.99793	5683.1
1131.63641	5705.1
1135.2724	5399.9
1138.90589	5071.5
1142.5369	4902.5
1146.16542	4789.5
1149.79145	4710.5
1153.415	4715.4
1157.03607	4756.6
1160.65467	4859.1
1164.27079	5050.8
1167.88443	5310.9
1171.49561	5796.6
1175.10432	6611.5
1178.71056	7699.5
1182.31434	8488.5
1185.91565	8658.6
1189.51451	8386.1
1193.11091	7789.9
1196.70485	7058.9
1200.29634	6535.6
1203.88538	6160.8
1207.47197	5759.7
1211.05612	5408
1214.63782	5197.2
1218.21708	5108.2
1221.79391	5120.3
1225.36829	5165.4
1228.94024	5224.3
1232.50976	5261.6
1236.07685	5290.6
1239.6415	5291.1
1243.20374	5289.4
1246.76355	5307.7
1250.32093	5355.4
1253.8759	5476.6
1257.42845	5622
1260.97859	5822.8
1264.52631	6014.5
1268.07163	6203.4
1271.61453	6416.5
1275.15503	6529.1
1278.69312	6567.7
1282.22882	6565.8
1285.76211	6699.7
1289.29301	6905.4
1292.82151	7174
1296.34761	7395.4
1299.87133	7760.3
1303.39266	8377.1
1306.9116	9380.9
1310.42815	10639.8
1313.94233	11516.1
1317.45412	11429.2
1320.96354	10608
1324.47058	9654.7
1327.97525	8826.2
1331.47754	8279.3
1334.97747	8059.8
1338.47502	8023.8
1341.97022	8139.6
1345.46305	8410.3
1348.95352	8938.9
1352.44163	9697
1355.92738	10776.5
1359.41078	12488.6
1362.89183	14435.8
1366.37053	14416
1369.84688	12116.4
1373.32088	9625.3
1376.79254	8089.4
1380.26186	7333
1383.72883	6969
1387.19347	6735.5
1390.65578	6422.9
1394.11575	6157.2
1397.57339	6027.8
1401.0287	6021.3
1404.48168	6116.8
1407.93234	6209.4
1411.38068	6308
1414.82669	6300.2
1418.27039	6229.1
1421.71177	6102.9
1425.15083	5957.1
1428.58758	5883
1432.02203	5841.6
1435.45416	5898.6
1438.88399	5955.4
1442.31151	5954.7
1445.73673	5989.2
1449.15965	6007.4
1452.58027	6014.7
1455.9986	5956.2
1459.41463	5934.1
1462.82837	5967
1466.23982	6075.1
1469.64898	6233.3
1473.05586	6330.1
1476.46045	6384.6
1479.86276	6509.7
1483.26279	6645.3
1486.66054	6842.8
1490.05602	7069.9
1493.44922	7443.5
1496.84016	7976.8
1500.22882	8846.2
1503.61521	9994.9
1506.99934	11412.3
1510.38121	12856.6
1513.76081	13703.5
1517.13816	13220.2
1520.51324	11595.3
1523.88607	9713
1527.25665	8379.9
1530.62498	7583.7
1533.99105	7167
1537.35488	6874.7
1540.71647	6672.8
1544.07581	6587.4
1547.4329	6535.5
1550.78776	6497.9
1554.14038	6505.3
1557.49077	6597.6
1560.83892	6736.7
1564.18484	6970.5
1567.52853	7197.4
1570.86999	7438
1574.20922	7603.9
1577.54624	7585.8
1580.88103	7227.9
1584.2136	6677.6
1587.54395	6334.8
1590.87208	6354.1
1594.19801	6677
1597.52172	7159.3
1600.84321	7413.5
1604.16251	7165
1607.47959	6681.2
1610.79447	6166.8
1614.10715	5680.8
1617.41763	5279.9
1620.7259	5030.2
1624.03199	4906.1
1627.33587	4907.9
1630.63757	5018.1
1633.93707	5272.4
1637.23439	5650.7
1640.52951	6241.9
1643.82246	7024.6
1647.11321	8044
1650.40179	8899.1
1653.68819	8891.8
1656.97241	7741.9
1660.25446	6327
1663.53433	5271.5
1666.81203	4667.8
1670.08756	4325.7
1673.36092	4140.9
1676.63211	4017.8
1679.90115	3940.1
1683.16801	3877.7
1686.43272	3834
1689.69527	3785.9
1692.95567	3750.5
1696.2139	3713.4
1699.46999	3673.9
1702.72392	3652.7
1705.97571	3667
1709.22535	3689.4
1712.47284	3711
1715.71819	3722.9
1718.96139	3733.4
1722.20246	3745
1725.44139	3726.4
1728.67818	3700.3
1731.91284	3641.5
1735.14537	3618.9
1738.37576	3595.1
1741.60403	3574
1744.83017	3544.6
1748.05418	3540.7
1751.27607	3522.1
1754.49584	3500.5
1757.71349	3478.5
1760.92903	3454.6
1764.14244	3443.5
1767.35375	3457.5
1770.56294	3429.4
1773.77002	3430.6
1776.97499	3431.7
1780.17785	3437.5
1783.37861	3442.1
1786.57727	3429.9
1789.77382	3425
1792.96828	3444.9
1796.16064	3436.7
1799.3509	3432.9
1802.53907	3417.5
1805.72514	3399.6
1808.90913	3400.3
1812.09102	3377.2
1815.27083	3375.2
1818.44856	3362
1821.6242	3341.9
1824.79776	3353
1827.96924	3343.8
1831.13864	3328
1834.30597	3338.6
1837.47122	3343.6
1840.6344	3327.1
1843.7955	3320.7
1846.95454	3320.1
1850.11151	3321.3
1853.26642	3324.9
1856.41926	3335.7
1859.57004	3341.5
1862.71876	3348.1
1865.86542	3328.5
1869.01003	3330.8
1872.15258	3334.9
1875.29308	3325.9
1878.43152	3329.2
1881.56792	3328.5
1884.70227	3331.5
1887.83457	3327.9
1890.96482	3330.9
1894.09304	3332.4
1897.21921	3340.8
1900.34335	3321.5
1903.46544	3327.3
1906.58551	3323.6
1909.70353	3324.5
1912.81953	3327.5
1915.93349	3318.3
1919.04543	3319.3
1922.15534	3313
1925.26322	3294.7
1928.36908	3281.7
1931.47292	3261.7
1934.57473	3253.6
1937.67453	3232.2
1940.77232	3218.8
1943.86808	3188.3
1946.96184	3183.6
1950.05358	3163.4
1953.14331	3169.9
1956.23103	3145.2
1959.31675	3141.8
1962.40046	3118
1965.48217	3114.5
1968.56188	3100.8
1971.63959	3103.3
1974.7153	3081
1977.78901	3079.5
1980.86073	3067.1
1983.93046	3065.8
1986.99819	3040
1990.06394	3025.9
1993.1277	3018
1996.18947	3003.9
1999.24925	2998.9
2002.30706	2989.1
2005.36288	2977.6
2008.41672	2982.2
2011.46859	2968.7
2014.51848	2951.3
2017.56639	2936.9
2020.61233	2936.2
2023.6563	2922.7
2026.6983	2912
2029.73833	2916.2
2032.7764	2892.9
2035.8125	2883.6
2038.84664	2897.8
2041.87881	2877.3
2044.90903	2880.6
2047.93729	2881.6
2050.96359	2864.7
2053.98794	2846.7
2057.01034	2840.5
2060.03078	2848.7
2063.04927	2857.2
2066.06582	2841
2069.08042	2844.1
2072.09307	2839.9
2075.10378	2822.8
2078.11255	2833.3
2081.11938	2834.8
2084.12426	2823.1
2087.12722	2814.2
2090.12824	2825.4
2093.12732	2822.5
2096.12447	2826.5
2099.11969	2825.3
2102.11299	2822.8
2105.10435	2829.1
2108.09379	2827.3
2111.08131	2807.9
2114.0669	2813.3
2117.05057	2828.8
2120.03233	2818.6
2123.01216	2834
2125.99008	2818.8
2128.96609	2836.4
2131.94018	2823.8
2134.91236	2834.9
2137.88263	2834.3
2140.851	2822.9
2143.81746	2824.4
2146.78201	2822.3
2149.74466	2825.2
2152.7054	2826.1
2155.66425	2826.6
2158.6212	2814.6
2161.57625	2804.1
2164.52941	2811
2167.48067	2813.1
2170.43004	2811.2
2173.37752	2793.6
2176.32311	2801.6
2179.26681	2793.4
2182.20863	2798.2
2185.14856	2804.9
2188.08661	2797.6
2191.02278	2814.1
2193.95707	2786.2
2196.88948	2790.3
2199.82001	2780.9
2202.74867	2781.8
2205.67545	2778.3
2208.60037	2779.1
2211.52341	2754.1
2214.44458	2759.2
2217.36388	2750.9
2220.28132	2751.7
2223.1969	2738.5
2226.11061	2748
2229.02246	2740.5
2231.93245	2728
2234.84058	2721.7
2237.74686	2713.5
2240.65128	2710.7
2243.55385	2706.6
2246.45456	2702.3
2249.35343	2706.8
2252.25044	2701.8
2255.14561	2693.1
2258.03893	2702.3
2260.93041	2700.3
2263.82004	2686.1
2266.70783	2682.6
2269.59378	2666.3
2272.4779	2667.4
2275.36017	2658.9
2278.24061	2654.3
2281.11922	2655.7
2283.996	2629
2286.87094	2643.9
2289.74405	2627.8
2292.61534	2626.7
2295.4848	2615.6
2298.35243	2619.4
2301.21824	2608.4
2304.08223	2604.5
2306.94439	2608.8
2309.80474	2604.2
2312.66327	2597.6
2315.51999	2608.1
2318.37489	2590
2321.22797	2590.9
2324.07925	2584.1
2326.92871	2589.4
2329.77637	2583.7
2332.62222	2583
2335.46626	2571.9
2338.3085	2563.1
2341.14893	2569.5
2343.98756	2580.1
2346.8244	2560.5
2349.65943	2580.1
2352.49267	2573.3
2355.32411	2570.1
2358.15376	2580.7
2360.98161	2574.1
2363.80768	2594.6
2366.63195	2592.2
2369.45444	2589.4
2372.27514	2579.3
2375.09405	2586.4
2377.91118	2581
2380.72652	2553.7
2383.54009	2556.1
2386.35187	2553.2
2389.16188	2525
2391.97011	2513.7
2394.77657	2510.9
2397.58125	2488.5
2400.38416	2484.7
2403.18529	2479.4
2405.98466	2474.5
2408.78226	2479.7
2411.57809	2472.7
2414.37216	2459.8
2417.16446	2470.8
2419.955	2465.2
2422.74378	2469.1
2425.5308	2468.9
2428.31606	2457.3
2431.09956	2450.8
2433.88131	2460.5
2436.6613	2451.4
2439.43954	2454.1
2442.21603	2454.6
2444.99077	2452.4
2447.76377	2442.4
2450.53501	2449.3
2453.30451	2455.7
2456.07226	2449.2
2458.83827	2455.9
2461.60254	2453.4
2464.36507	2439.4
2467.12586	2444.1
2469.88492	2433.4
2472.64224	2445.9
2475.39782	2446.7
2478.15167	2441.8
2480.90379	2437
2483.65417	2449.2
2486.40283	2460.4
2489.14976	2455
2491.89497	2459.6
2494.63845	2465
2497.3802	2459.5
2500.12024	2460.9
2502.85855	2451.3
2505.59514	2457.8
2508.33002	2429.4
2511.06318	2432.8
2513.79462	2429.1
2516.52435	2402.4
2519.25237	2393.4
2521.97867	2383.8
2524.70327	2383.8
2527.42616	2385.9
2530.14734	2368.3
2532.86681	2364.6
2535.58458	2350.6
2538.30065	2366.2
2541.01501	2369.9
2543.72768	2362.5
2546.43864	2360.2
2549.14791	2357.4
2551.85548	2354.7
2554.56136	2352.4
2557.26554	2352.3
2559.96803	2350.5
2562.66883	2349.5
2565.36794	2345.7
2568.06536	2335.5
2570.7611	2339.8
2573.45514	2329.3
2576.14751	2323.2
2578.83819	2328.8
2581.52719	2322.2
2584.21451	2316.3
2586.90015	2313.7
2589.58411	2303.9
2592.2664	2312.5
2594.94701	2310.3
2597.62594	2302.8
2600.30321	2291.4
2602.9788	2298.6
2605.65273	2296
2608.32498	2288.1
2610.99557	2295.2
2613.66449	2286.5
2616.33175	2284.1
2618.99734	2281.9
2621.66128	2289.2
2624.32355	2282.3
2626.98416	2270.2
2629.64311	2278.7
2632.30041	2275
2634.95605	2273.6
2637.61004	2255.1
2640.26238	2255.8
2642.91306	2254.4
2645.56209	2251.8
2648.20948	2249.5
2650.85521	2246.1
2653.4993	2248.5
2656.14175	2247.9
2658.78255	2260.9
2661.42171	2259.6
2664.05923	2264.5
2666.6951	2264.9
2669.32934	2263.6
2671.96194	2261.8
2674.59291	2270.3
2677.22224	2268.2
2679.84993	2268.7
2682.476	2257.3
2685.10043	2263
2687.72324	2277.7
2690.34441	2267.4
2692.96396	2260
2695.58188	2256.9
2698.19818	2263.4
2700.81285	2256.3
2703.4259	2257.8
2706.03733	2250.5
2708.64714	2256
2711.25533	2247.9
2713.86191	2256.8
2716.46687	2265.3
2719.07021	2262.4
2721.67194	2271.3
2724.27206	2268.9
2726.87057	2274.3
2729.46747	2272.3
2732.06276	2254.2
2734.65644	2264
2737.24852	2267.6
2739.83899	2255.8
2742.42786	2252.5
2745.01513	2245.9
2747.60079	2239.7
2750.18486	2239.5
2752.76733	2228.3
2755.3482	2231.5
2757.92747	2238.2
2760.50515	2225.3
2763.08123	2220
2765.65573	2215.9
2768.22863	2220.7
2770.79994	2216.1
2773.36967	2216
2775.9378	2216.9
2778.50435	2211.3
2781.06932	2212.7
2783.6327	2204.6
2786.1945	2205.5
2788.75471	2206.3
2791.31335	2199.8
2793.87041	2206
2796.42589	2216.1
2798.97979	2196.4
2801.53212	2195.1
2804.08288	2194.5
2806.63206	2195
2809.17967	2194
2811.72571	2192.2
2814.27018	2193.1
2816.81308	2204
2819.35442	2193.3
2821.89419	2211.6
2824.43239	2211.7
2826.96904	2205.8
2829.50412	2211.5
2832.03763	2211.8
2834.56959	2227.3
2837.1	2211.2
2839.62884	2226.2
2842.15613	2243.5
2844.68186	2265.8
2847.20604	2296.8
2849.72867	2311
2852.24974	2328.5
2854.76927	2322.2
2857.28724	2315.5
2859.80367	2303.3
2862.31855	2301.4
2864.83189	2301.9
2867.34368	2286.1
2869.85393	2289.1
2872.36264	2291.5
2874.8698	2290.9
2877.37543	2281.5
2879.87952	2287.8
2882.38207	2282.9
2884.88308	2264.2
2887.38256	2273.2
2889.88051	2261.2
2892.37692	2263.4
2894.8718	2273.5
2897.36515	2265.7
2899.85698	2263.7
2902.34727	2268.8
2904.83604	2287.2
2907.32328	2281.8
2909.809	2280.7
2912.29319	2286.4
2914.77587	2280.5
2917.25702	2272.5
2919.73665	2273.1
2922.21476	2269.7
2924.69136	2272
2927.16644	2268.3
2929.64	2268.6
2932.11205	2262.2
2934.58258	2253
2937.05161	2245.8
2939.51912	2242.8
2941.98513	2219.7
2944.44962	2208
2946.91261	2183.4
2949.37409	2178.9
2951.83407	2170.7
2954.29254	2156.5
2956.74951	2148.1
2959.20498	2154.4
2961.65895	2130.9
2964.11142	2138.3
2966.56239	2138.4
2969.01186	2123
2971.45984	2121.9
2973.90632	2112.8
2976.35131	2107.9
2978.7948	2109.2
2981.23681	2097.9
2983.67732	2101.4
2986.11635	2085.6
2988.55388	2087.1
2990.98993	2072.9
2993.4245	2067.6
2995.85758	2060.4
2998.28917	2065.8
3000.71928	2057.8
3003.14791	2050.2
3005.57506	2051.6
3008.00073	2043.6
3010.42493	2042.7
3012.84764	2043.9
3015.26888	2045.6
3017.68865	2050.4
3020.10694	2037
3022.52376	2031.8
3024.9391	2035
3027.35298	2025.3
3029.76539	2034.2
3032.17632	2019.1
3034.5858	2022.6
3036.9938	2022.9
3039.40034	2010.9
3041.80542	2003.5
3044.20903	2018.6
3046.61118	2019.8
3049.01187	2009.4
3051.4111	2020.1
3053.80888	2009.8
3056.20519	2015.6
3058.60005	2003.1
3060.99345	1992.7
3063.3854	2001.3
3065.7759	1992.8
3068.16494	2000.6
3070.55254	1985.8
3072.93868	1988.1
3075.32338	1991.5
3077.70662	1982.8
3080.08842	1985.2
3082.46878	1980.3
3084.84769	1963.6
3087.22515	1969.6
3089.60118	1971.2
3091.97576	1964.3
3094.3489	1971.7
3096.72061	1966
3099.09087	1976.9
3101.4597	1976.7
3103.82709	1972.6
3106.19305	1975.2
3108.55757	1985.5
3110.92066	1975.4
3113.28232	1970
3115.64255	1968.4
3118.00134	1970.6
3120.35871	1964.9
3122.71466	1977.7
3125.06917	1976.4
3127.42226	1961.7
3129.77393	1974.2
3132.12417	1979
3134.47299	1985.9
3136.82039	1976.1
3139.16636	1983.6
3141.51092	1985.5
3143.85406	1993.9
3146.19579	2006.9
3148.53609	2007.9
3150.87499	2013.8
3153.21246	2027.3
3155.54853	2014.8
3157.88318	2034.9
3160.21642	2028.6
3162.54826	2034.2
3164.87868	2031.3
3167.2077	2028.4
3169.5353	2033.6
3171.86151	2048.1
3174.18631	2041
3176.5097	2050.8
3178.83169	2054.9
3181.15228	2056
3183.47147	2052.3
3185.78926	2052.3
3188.10565	2058.3
3190.42065	2058.6
3192.73424	2064.1
3195.04645	2060.6
3197.35725	2056.6
3199.66667	2073.7
3201.97469	2083.6
3204.28132	2080.6
3206.58656	2079.7
3208.8904	2081.7
3211.19287	2097.1
3213.49394	2093
3215.79363	2097.6
3218.09193	2098.1
3220.38884	2103.6
3222.68438	2108.7
3224.97853	2115.8
3227.2713	2114.4
3229.56269	2097.1
3231.8527	2102.7
3234.14133	2099.4
3236.42858	2095.4
3238.71446	2098.8
3240.99896	2092.3
3243.28209	2096.3
3245.56384	2091.2
3247.84423	2094
3250.12324	2091.8
3252.40088	2081.5
3254.67715	2091
3256.95205	2094.3
3259.22558	2087.9
3261.49775	2078.4
3263.76855	2081.8
3266.03799	2071.8
3268.30606	2073
3270.57277	2075.8
3272.83812	2066.7
3275.10211	2072.6
3277.36474	2064.6
3279.62601	2056.9
3281.88593	2060.9
3284.14448	2061.5
3286.40168	2071.7
3288.65753	2076.5
3290.91202	2057.6
3293.16516	2051.5
3295.41695	2053.1
3297.66738	2044.2
3299.91647	2037.4
3302.16421	2029.6
3304.4106	2008.1
3306.65564	1995.9
3308.89933	1991.7
3311.14169	1966.8
3313.38269	1957.9
3315.62236	1959.4
3317.86068	1936
3320.09766	1922
3322.3333	1900.9
3324.5676	1898.8
3326.80056	1866.3
3329.03219	1854.4
3331.26248	1
3333.49143	-0.7
3335.71905	-1.5
