Data from AgNPs_FTO_APTES_UA_1uM_CRN_0uM_R6G_10uM_NaF_0.1M_Addition_RamanShift__17__11-25-29-424.txt Node

Date: Thu Jan 27 11:25:29 GMT 2022
User: TCL
Spectrometer: QEP01345
Trigger mode: 4
Integration Time (sec): 7.000000E0
Scans to average: 10
Electric dark correction enabled: true
Nonlinearity correction enabled: false
Boxcar width: 0
XAxis mode: Raman Shifts
Number of Pixels in Spectrum: 1044
>>>>>Begin Spectral Data<<<<<
46.04893	0.075
50.45542	0.675
54.85868	-1.025
59.25871	-0.225
63.6555	25.575
68.04907	28.775
72.43941	27.775
76.82654	32.775
81.21044	32.075
85.59113	34.575
89.96862	36.275
94.34289	38.875
98.71396	39.775
103.08183	39.475
107.4465	40.175
111.80798	39.775
116.16626	39.475
120.52136	43.175
124.87327	41.375
129.222	40.675
133.56755	38.175
137.90993	40.175
142.24913	42.275
146.58517	43.875
150.91804	47.275
155.24774	48.175
159.57429	55.175
163.89768	60.075
168.21792	78.275
172.53501	95.775
176.84895	125.675
181.15975	164.875
185.46741	213.775
189.77193	289.075
194.07331	372.875
198.37157	473.875
202.6667	585.575
206.9587	682.375
211.24758	791.775
215.53334	886.875
219.81599	1008.975
224.09553	1129.275
228.37195	1264.475
232.64527	1426.075
236.91549	1572.275
241.18261	1723.075
245.44663	1857.275
249.70755	1936.675
253.96539	2017.175
258.22014	2078.175
262.4718	2129.375
266.72039	2163.675
270.96589	2183.075
275.20832	2168.775
279.44768	2135.375
283.68397	2076.775
287.91719	2034.875
292.14735	2015.075
296.37445	2036.975
300.59849	2106.875
304.81948	2181.275
309.03742	2249.775
313.25231	2255.675
317.46415	2139.575
321.67296	1960.675
325.87872	1851.275
330.08145	1783.375
334.28114	1785.775
338.47781	1820.375
342.67145	1871.075
346.86207	1946.875
351.04966	2076.575
355.23424	2214.975
359.4158	2331.075
363.59435	2406.175
367.76989	2435.775
371.94243	2460.675
376.11196	2449.175
380.27849	2439.075
384.44203	2404.475
388.60257	2363.775
392.76012	2305.575
396.91468	2327.775
401.06626	2369.875
405.21485	2398.175
409.36047	2369.175
413.50311	2228.775
417.64277	2097.875
421.77947	2015.775
425.9132	1982.275
430.04396	1960.975
434.17176	1983.675
438.2966	2002.575
442.41849	2066.075
446.53742	2126.075
450.6534	2187.575
454.76644	2216.175
458.87653	2241.275
462.98368	2220.875
467.08789	2194.075
471.18916	2151.475
475.2875	2114.475
479.38291	2078.575
483.4754	2043.175
487.56496	2029.075
491.6516	2011.475
495.73531	2011.575
499.81612	2002.075
503.89401	2028.075
507.96899	2076.375
512.04106	2124.375
516.11023	2186.575
520.1765	2227.075
524.23987	2226.775
528.30034	2169.675
532.35792	2097.675
536.41261	2046.975
540.46441	1978.475
544.51333	1952.675
548.55936	1938.975
552.60252	1965.075
556.64279	2009.675
560.6802	2007.175
564.71473	2038.475
568.7464	2106.975
572.7752	2134.675
576.80114	2062.775
580.82422	1969.975
584.84444	1918.275
588.86181	1910.075
592.87633	1914.775
596.888	1934.275
600.89682	2011.675
604.9028	2215.875
608.90594	2826.175
612.90624	3730.775
616.90371	3787.975
620.89834	2730.475
624.89015	2160.975
628.87913	2019.175
632.86528	2008.675
636.84862	2029.475
640.82913	2020.375
644.80683	1958.375
648.78172	1897.075
652.75379	1917.175
656.72306	2017.075
660.68952	2132.475
664.65319	2085.275
668.61405	1949.575
672.57211	1867.575
676.52738	1864.075
680.47986	1855.275
684.42955	1854.575
688.37646	1858.775
692.32058	1863.575
696.26192	1880.175
700.20048	1904.175
704.13626	1921.075
708.06928	1914.575
711.99952	1881.275
715.927	1867.275
719.85171	1862.275
723.77365	1874.675
727.69284	1869.475
731.60928	1856.475
735.52295	1856.975
739.43388	1871.675
743.34206	1869.275
747.24749	1858.175
751.15017	1869.875
755.05012	1898.275
758.94733	1978.175
762.8418	2140.775
766.73354	2465.175
770.62254	2845.475
774.50882	3137.575
778.39237	3143.475
782.27321	2771.875
786.15132	2333.375
790.02671	2079.075
793.89938	1983.675
797.76935	1952.075
801.6366	1931.275
805.50115	1919.175
809.36299	1927.175
813.22213	1917.375
817.07857	1920.675
820.93231	1916.475
824.78336	1897.975
828.63172	1898.175
832.47738	1912.575
836.32036	1911.475
840.16066	1901.775
843.99827	1884.175
847.8332	1880.175
851.66546	1884.575
855.49504	1890.275
859.32195	1866.075
863.1462	1860.075
866.96777	1851.675
870.78668	1844.775
874.60293	1836.075
878.41652	1844.975
882.22745	1850.475
886.03573	1879.075
889.84136	1879.275
893.64433	1874.775
897.44466	1875.575
901.24235	1869.075
905.0374	1861.075
908.8298	1841.475
912.61957	1834.375
916.40671	1849.175
920.19121	1858.775
923.97308	1880.975
927.75233	1896.575
931.52895	1927.875
935.30295	1927.475
939.07433	1895.675
942.84309	1842.375
946.60924	1812.975
950.37278	1792.075
954.13371	1782.575
957.89203	1771.375
961.64774	1744.275
965.40086	1738.475
969.15137	1727.375
972.89929	1708.975
976.64461	1698.875
980.38733	1697.375
984.12747	1702.475
987.86502	1695.075
991.59999	1702.575
995.33237	1714.375
999.06217	1724.775
1002.78939	1734.775
1006.51404	1751.275
1010.23611	1781.675
1013.95561	1795.275
1017.67255	1794.475
1021.38692	1786.175
1025.09872	1782.875
1028.80796	1760.075
1032.51465	1774.175
1036.21877	1804.675
1039.92035	1863.275
1043.61937	1886.275
1047.31584	1857.675
1051.00976	1829.575
1054.70114	1798.175
1058.38998	1764.475
1062.07627	1738.575
1065.76003	1730.175
1069.44126	1725.175
1073.11995	1739.075
1076.79611	1784.175
1080.46974	1811.575
1084.14085	1859.475
1087.80943	1902.975
1091.47549	1893.475
1095.13903	1849.175
1098.80005	1776.675
1102.45857	1705.175
1106.11456	1689.475
1109.76805	1706.675
1113.41903	1763.675
1117.06751	1830.375
1120.71348	1919.975
1124.35696	2025.275
1127.99793	2112.175
1131.63641	2104.975
1135.2724	1985.275
1138.90589	1854.275
1142.5369	1779.375
1146.16542	1711.175
1149.79145	1670.475
1153.415	1644.175
1157.03607	1674.675
1160.65467	1699.875
1164.27079	1749.675
1167.88443	1829.375
1171.49561	1961.075
1175.10432	2205.075
1178.71056	2555.075
1182.31434	2841.075
1185.91565	2927.275
1189.51451	2858.975
1193.11091	2681.975
1196.70485	2478.675
1200.29634	2323.175
1203.88538	2179.975
1207.47197	1999.875
1211.05612	1856.175
1214.63782	1758.475
1218.21708	1705.575
1221.79391	1689.075
1225.36829	1689.075
1228.94024	1688.075
1232.50976	1682.475
1236.07685	1698.775
1239.6415	1686.175
1243.20374	1721.475
1246.76355	1718.075
1250.32093	1732.175
1253.8759	1774.475
1257.42845	1824.175
1260.97859	1867.675
1264.52631	1939.275
1268.07163	2020.675
1271.61453	2066.575
1275.15503	2093.975
1278.69312	2086.575
1282.22882	2087.575
1285.76211	2116.475
1289.29301	2172.375
1292.82151	2265.075
1296.34761	2341.975
1299.87133	2455.675
1303.39266	2653.575
1306.9116	2933.875
1310.42815	3276.075
1313.94233	3462.675
1317.45412	3324.975
1320.96354	3021.975
1324.47058	2681.275
1327.97525	2394.375
1331.47754	2239.375
1334.97747	2174.175
1338.47502	2213.775
1341.97022	2288.575
1345.46305	2434.975
1348.95352	2700.775
1352.44163	3036.075
1355.92738	3529.075
1359.41078	4148.975
1362.89183	4644.675
1366.37053	4563.675
1369.84688	3915.275
1373.32088	3211.775
1376.79254	2686.175
1380.26186	2372.275
1383.72883	2206.275
1387.19347	2071.475
1390.65578	1919.275
1394.11575	1822.075
1397.57339	1756.375
1401.0287	1730.675
1404.48168	1705.275
1407.93234	1700.575
1411.38068	1701.175
1414.82669	1712.075
1418.27039	1727.075
1421.71177	1740.975
1425.15083	1739.475
1428.58758	1753.975
1432.02203	1768.175
1435.45416	1796.275
1438.88399	1830.075
1442.31151	1816.275
1445.73673	1799.575
1449.15965	1799.375
1452.58027	1766.675
1455.9986	1726.475
1459.41463	1708.175
1462.82837	1705.775
1466.23982	1730.675
1469.64898	1760.775
1473.05586	1784.575
1476.46045	1798.775
1479.86276	1836.875
1483.26279	1857.175
1486.66054	1912.175
1490.05602	1970.075
1493.44922	2076.875
1496.84016	2273.275
1500.22882	2607.675
1503.61521	3046.675
1506.99934	3538.975
1510.38121	3978.475
1513.76081	4144.475
1517.13816	3870.275
1520.51324	3262.475
1523.88607	2661.575
1527.25665	2276.475
1530.62498	2065.575
1533.99105	1970.775
1537.35488	1921.075
1540.71647	1883.175
1544.07581	1879.375
1547.4329	1902.275
1550.78776	1922.675
1554.14038	1938.375
1557.49077	1965.675
1560.83892	1988.075
1564.18484	2055.175
1567.52853	2150.175
1570.86999	2252.575
1574.20922	2356.675
1577.54624	2371.675
1580.88103	2224.975
1584.2136	1994.475
1587.54395	1830.775
1590.87208	1784.575
1594.19801	1828.575
1597.52172	1940.975
1600.84321	2002.275
1604.16251	1950.475
1607.47959	1856.075
1610.79447	1747.875
1614.10715	1627.875
1617.41763	1542.175
1620.7259	1485.675
1624.03199	1439.675
1627.33587	1436.075
1630.63757	1441.075
1633.93707	1481.475
1637.23439	1538.975
1640.52951	1652.675
1643.82246	1855.175
1647.11321	2138.275
1650.40179	2387.975
1653.68819	2400.175
1656.97241	2103.275
1660.25446	1727.975
1663.53433	1467.175
1666.81203	1332.075
1670.08756	1249.575
1673.36092	1210.275
1676.63211	1193.375
1679.90115	1160.975
1683.16801	1151.575
1686.43272	1126.275
1689.69527	1107.775
1692.95567	1071.975
1696.2139	1027.975
1699.46999	983.275
1702.72392	956.475
1705.97571	984.975
1709.22535	1022.175
1712.47284	1057.075
1715.71819	1070.775
1718.96139	1083.175
1722.20246	1076.575
1725.44139	1068.875
1728.67818	1058.775
1731.91284	1042.875
1735.14537	1017.575
1738.37576	1001.575
1741.60403	986.675
1744.83017	973.875
1748.05418	954.175
1751.27607	941.675
1754.49584	918.475
1757.71349	893.475
1760.92903	863.675
1764.14244	865.675
1767.35375	868.675
1770.56294	852.075
1773.77002	853.275
1776.97499	874.975
1780.17785	897.975
1783.37861	895.875
1786.57727	906.075
1789.77382	911.475
1792.96828	904.275
1796.16064	907.675
1799.3509	899.775
1802.53907	895.875
1805.72514	890.575
1808.90913	895.175
1812.09102	875.375
1815.27083	879.075
1818.44856	873.575
1821.6242	878.675
1824.79776	867.275
1827.96924	868.275
1831.13864	871.875
1834.30597	860.175
1837.47122	868.675
1840.6344	855.475
1843.7955	853.775
1846.95454	855.275
1850.11151	844.675
1853.26642	845.075
1856.41926	845.075
1859.57004	844.975
1862.71876	846.875
1865.86542	841.375
1869.01003	839.175
1872.15258	836.475
1875.29308	829.075
1878.43152	824.775
1881.56792	835.575
1884.70227	830.675
1887.83457	826.775
1890.96482	821.775
1894.09304	821.675
1897.21921	822.375
1900.34335	822.975
1903.46544	816.375
1906.58551	820.975
1909.70353	813.675
1912.81953	815.375
1915.93349	818.375
1919.04543	812.875
1922.15534	805.275
1925.26322	807.075
1928.36908	797.975
1931.47292	794.375
1934.57473	788.375
1937.67453	794.975
1940.77232	781.075
1943.86808	782.975
1946.96184	777.275
1950.05358	776.575
1953.14331	776.575
1956.23103	768.475
1959.31675	772.275
1962.40046	765.875
1965.48217	760.475
1968.56188	758.675
1971.63959	763.275
1974.7153	759.175
1977.78901	755.275
1980.86073	755.875
1983.93046	750.975
1986.99819	747.875
1990.06394	739.575
1993.1277	732.275
1996.18947	733.075
1999.24925	731.975
2002.30706	719.775
2005.36288	725.675
2008.41672	718.775
2011.46859	718.075
2014.51848	715.975
2017.56639	716.375
2020.61233	710.775
2023.6563	709.775
2026.6983	704.075
2029.73833	697.675
2032.7764	702.775
2035.8125	691.075
2038.84664	697.675
2041.87881	689.175
2044.90903	684.075
2047.93729	682.175
2050.96359	687.575
2053.98794	678.775
2057.01034	674.775
2060.03078	681.875
2063.04927	678.775
2066.06582	679.375
2069.08042	681.275
2072.09307	680.675
2075.10378	674.475
2078.11255	678.375
2081.11938	676.175
2084.12426	680.475
2087.12722	675.575
2090.12824	676.075
2093.12732	671.875
2096.12447	672.175
2099.11969	676.875
2102.11299	679.575
2105.10435	674.575
2108.09379	675.775
2111.08131	669.875
2114.0669	668.275
2117.05057	675.275
2120.03233	661.775
2123.01216	667.075
2125.99008	669.875
2128.96609	670.875
2131.94018	671.575
2134.91236	669.275
2137.88263	666.875
2140.851	662.175
2143.81746	664.975
2146.78201	659.275
2149.74466	662.575
2152.7054	662.875
2155.66425	654.875
2158.6212	660.175
2161.57625	655.075
2164.52941	665.675
2167.48067	654.975
2170.43004	651.575
2173.37752	657.275
2176.32311	648.075
2179.26681	655.975
2182.20863	648.675
2185.14856	650.575
2188.08661	648.575
2191.02278	648.075
2193.95707	646.775
2196.88948	642.475
2199.82001	648.175
2202.74867	632.575
2205.67545	639.175
2208.60037	638.575
2211.52341	641.375
2214.44458	631.975
2217.36388	628.575
2220.28132	630.075
2223.1969	629.475
2226.11061	618.975
2229.02246	623.375
2231.93245	620.075
2234.84058	619.775
2237.74686	619.075
2240.65128	615.375
2243.55385	607.475
2246.45456	613.575
2249.35343	618.575
2252.25044	614.475
2255.14561	608.675
2258.03893	602.675
2260.93041	591.975
2263.82004	606.075
2266.70783	599.175
2269.59378	604.175
2272.4779	602.975
2275.36017	602.675
2278.24061	596.575
2281.11922	601.475
2283.996	592.475
2286.87094	594.675
2289.74405	593.875
2292.61534	582.475
2295.4848	584.875
2298.35243	586.475
2301.21824	580.875
2304.08223	578.175
2306.94439	583.175
2309.80474	577.375
2312.66327	577.275
2315.51999	576.675
2318.37489	575.175
2321.22797	572.775
2324.07925	570.675
2326.92871	570.175
2329.77637	576.775
2332.62222	571.475
2335.46626	567.475
2338.3085	565.075
2341.14893	568.075
2343.98756	569.875
2346.8244	564.275
2349.65943	564.975
2352.49267	563.275
2355.32411	565.575
2358.15376	563.675
2360.98161	564.375
2363.80768	568.375
2366.63195	573.075
2369.45444	574.275
2372.27514	567.975
2375.09405	568.975
2377.91118	567.275
2380.72652	573.175
2383.54009	559.475
2386.35187	554.475
2389.16188	565.375
2391.97011	555.775
2394.77657	547.275
2397.58125	536.175
2400.38416	540.375
2403.18529	539.775
2405.98466	542.275
2408.78226	535.775
2411.57809	535.375
2414.37216	531.075
2417.16446	532.875
2419.955	531.975
2422.74378	536.275
2425.5308	530.575
2428.31606	536.875
2431.09956	532.875
2433.88131	532.675
2436.6613	534.875
2439.43954	528.775
2442.21603	524.575
2444.99077	529.375
2447.76377	537.575
2450.53501	526.475
2453.30451	532.075
2456.07226	524.275
2458.83827	528.975
2461.60254	530.175
2464.36507	528.775
2467.12586	528.975
2469.88492	530.375
2472.64224	531.675
2475.39782	523.175
2478.15167	520.375
2480.90379	518.775
2483.65417	530.675
2486.40283	529.375
2489.14976	528.375
2491.89497	536.775
2494.63845	521.275
2497.3802	525.975
2500.12024	531.475
2502.85855	520.975
2505.59514	518.675
2508.33002	514.475
2511.06318	516.575
2513.79462	513.975
2516.52435	508.775
2519.25237	510.375
2521.97867	502.075
2524.70327	506.675
2527.42616	502.575
2530.14734	500.075
2532.86681	506.075
2535.58458	499.475
2538.30065	499.475
2541.01501	503.275
2543.72768	501.075
2546.43864	500.575
2549.14791	508.175
2551.85548	508.075
2554.56136	503.475
2557.26554	504.575
2559.96803	496.975
2562.66883	505.375
2565.36794	502.175
2568.06536	508.275
2570.7611	502.075
2573.45514	501.675
2576.14751	497.775
2578.83819	497.175
2581.52719	506.275
2584.21451	503.275
2586.90015	497.675
2589.58411	489.875
2592.2664	499.375
2594.94701	491.075
2597.62594	493.575
2600.30321	489.575
2602.9788	489.175
2605.65273	487.775
2608.32498	492.975
2610.99557	488.775
2613.66449	486.475
2616.33175	489.275
2618.99734	489.575
2621.66128	496.675
2624.32355	483.875
2626.98416	492.775
2629.64311	492.675
2632.30041	491.275
2634.95605	481.675
2637.61004	489.075
2640.26238	487.475
2642.91306	489.275
2645.56209	480.075
2648.20948	484.175
2650.85521	477.775
2653.4993	486.975
2656.14175	484.275
2658.78255	495.675
2661.42171	497.175
2664.05923	496.775
2666.6951	496.875
2669.32934	495.175
2671.96194	502.775
2674.59291	509.575
2677.22224	509.675
2679.84993	513.275
2682.476	509.375
2685.10043	515.275
2687.72324	520.375
2690.34441	514.375
2692.96396	517.175
2695.58188	524.675
2698.19818	529.175
2700.81285	525.375
2703.4259	525.775
2706.03733	497.875
2708.64714	507.375
2711.25533	533.775
2713.86191	541.075
2716.46687	551.875
2719.07021	558.675
2721.67194	564.475
2724.27206	561.275
2726.87057	569.075
2729.46747	566.675
2732.06276	563.575
2734.65644	563.275
2737.24852	572.075
2739.83899	574.275
2742.42786	575.475
2745.01513	581.075
2747.60079	584.075
2750.18486	578.975
2752.76733	589.475
2755.3482	592.075
2757.92747	599.775
2760.50515	606.575
2763.08123	606.475
2765.65573	613.675
2768.22863	623.675
2770.79994	626.575
2773.36967	637.575
2775.9378	648.975
2778.50435	654.675
2781.06932	658.975
2783.6327	679.675
2786.1945	682.375
2788.75471	703.875
2791.31335	718.375
2793.87041	732.175
2796.42589	748.475
2798.97979	769.775
2801.53212	785.075
2804.08288	809.675
2806.63206	825.975
2809.17967	832.475
2811.72571	856.575
2814.27018	863.075
2816.81308	888.075
2819.35442	898.075
2821.89419	905.275
2824.43239	909.675
2826.96904	914.075
2829.50412	910.575
2832.03763	907.275
2834.56959	913.375
2837.1	913.575
2839.62884	925.475
2842.15613	941.075
2844.68186	977.375
2847.20604	1018.275
2849.72867	1043.875
2852.24974	1061.475
2854.76927	1058.275
2857.28724	1038.475
2859.80367	1039.675
2862.31855	1034.175
2864.83189	1020.075
2867.34368	1005.375
2869.85393	996.075
2872.36264	992.275
2874.8698	981.075
2877.37543	971.575
2879.87952	969.275
2882.38207	957.775
2884.88308	950.475
2887.38256	950.575
2889.88051	936.375
2892.37692	932.875
2894.8718	929.175
2897.36515	924.775
2899.85698	928.475
2902.34727	928.475
2904.83604	924.475
2907.32328	916.575
2909.809	915.375
2912.29319	916.475
2914.77587	908.875
2917.25702	903.275
2919.73665	903.075
2922.21476	903.075
2924.69136	892.675
2927.16644	887.875
2929.64	880.675
2932.11205	870.975
2934.58258	856.875
2937.05161	831.575
2939.51912	827.175
2941.98513	799.175
2944.44962	766.175
2946.91261	738.775
2949.37409	715.675
2951.83407	684.575
2954.29254	662.175
2956.74951	651.275
2959.20498	638.875
2961.65895	622.975
2964.11142	613.175
2966.56239	600.675
2969.01186	597.175
2971.45984	583.775
2973.90632	576.975
2976.35131	571.375
2978.7948	561.975
2981.23681	555.675
2983.67732	551.975
2986.11635	544.575
2988.55388	538.475
2990.98993	525.975
2993.4245	527.975
2995.85758	515.175
2998.28917	514.475
3000.71928	501.975
3003.14791	509.975
3005.57506	507.675
3008.00073	505.875
3010.42493	501.175
3012.84764	501.375
3015.26888	498.875
3017.68865	499.875
3020.10694	502.275
3022.52376	501.675
3024.9391	503.575
3027.35298	503.275
3029.76539	503.175
3032.17632	503.075
3034.5858	504.775
3036.9938	511.775
3039.40034	510.775
3041.80542	511.375
3044.20903	509.275
3046.61118	513.775
3049.01187	512.275
3051.4111	515.875
3053.80888	517.075
3056.20519	521.675
3058.60005	518.375
3060.99345	527.575
3063.3854	530.275
3065.7759	529.775
3068.16494	534.775
3070.55254	529.175
3072.93868	538.775
3075.32338	534.375
3077.70662	530.375
3080.08842	535.575
3082.46878	542.175
3084.84769	536.675
3087.22515	538.775
3089.60118	534.275
3091.97576	546.375
3094.3489	546.175
3096.72061	551.975
3099.09087	557.975
3101.4597	552.375
3103.82709	557.675
3106.19305	561.675
3108.55757	562.575
3110.92066	570.075
3113.28232	572.475
3115.64255	578.975
3118.00134	584.675
3120.35871	586.275
3122.71466	587.975
3125.06917	592.075
3127.42226	598.075
3129.77393	601.575
3132.12417	609.475
3134.47299	607.375
3136.82039	621.375
3139.16636	624.675
3141.51092	635.575
3143.85406	637.775
3146.19579	640.575
3148.53609	649.975
3150.87499	665.675
3153.21246	672.975
3155.54853	668.975
3157.88318	679.575
3160.21642	689.975
3162.54826	697.175
3164.87868	694.675
3167.2077	697.975
3169.5353	701.275
3171.86151	711.475
3174.18631	718.075
3176.5097	717.575
3178.83169	732.975
3181.15228	724.675
3183.47147	737.975
3185.78926	745.075
3188.10565	746.175
3190.42065	755.675
3192.73424	753.275
3195.04645	763.575
3197.35725	763.975
3199.66667	769.975
3201.97469	773.975
3204.28132	773.375
3206.58656	788.175
3208.8904	796.075
3211.19287	788.675
3213.49394	796.775
3215.79363	793.775
3218.09193	809.575
3220.38884	801.475
3222.68438	798.375
3224.97853	798.775
3227.2713	805.175
3229.56269	810.975
3231.8527	816.875
3234.14133	820.575
3236.42858	822.275
3238.71446	823.775
3240.99896	820.275
3243.28209	825.475
3245.56384	832.675
3247.84423	834.375
3250.12324	831.675
3252.40088	829.775
3254.67715	829.875
3256.95205	828.975
3259.22558	835.875
3261.49775	846.975
3263.76855	848.375
3266.03799	841.975
3268.30606	845.175
3270.57277	845.475
3272.83812	845.975
3275.10211	854.475
3277.36474	849.475
3279.62601	845.775
3281.88593	844.475
3284.14448	847.375
3286.40168	847.775
3288.65753	851.575
3290.91202	847.775
3293.16516	846.675
3295.41695	840.075
3297.66738	838.375
3299.91647	834.875
3302.16421	824.575
3304.4106	823.875
3306.65564	819.575
3308.89933	814.075
3311.14169	805.075
3313.38269	796.175
3315.62236	787.775
3317.86068	787.775
3320.09766	794.275
3322.3333	774.675
3324.5676	781.475
3326.80056	758.475
3329.03219	757.475
3331.26248	0.175
3333.49143	0.175
3335.71905	-0.525
