Data from AgNPs_FTO_APTES_UA_1uM_CRN_10uM_R6G_10uM_NaF_0.1M_Addition_RamanShift__25__14-44-59-653.txt Node

Date: Thu Jan 27 14:44:59 GMT 2022
User: TCL
Spectrometer: QEP01345
Trigger mode: 4
Integration Time (sec): 7.000000E0
Scans to average: 10
Electric dark correction enabled: true
Nonlinearity correction enabled: false
Boxcar width: 0
XAxis mode: Raman Shifts
Number of Pixels in Spectrum: 1044
>>>>>Begin Spectral Data<<<<<
46.04893	0.1
50.45542	1
54.85868	-1
59.25871	-0.2
63.6555	45.6
68.04907	47.7
72.43941	47.6
76.82654	53.3
81.21044	55.7
85.59113	56.2
89.96862	58.9
94.34289	57
98.71396	64.6
103.08183	60.9
107.4465	65.2
111.80798	66
116.16626	66.9
120.52136	74.4
124.87327	73.7
129.222	70.3
133.56755	77.7
137.90993	79.6
142.24913	84.3
146.58517	92.3
150.91804	107
155.24774	120.8
159.57429	148
163.89768	183.3
168.21792	242.1
172.53501	324.2
176.84895	447.7
181.15975	622.7
185.46741	868
189.77193	1192.9
194.07331	1591.8
198.37157	2053.8
202.6667	2536.7
206.9587	3010.7
211.24758	3494.4
215.53334	3967.2
219.81599	4495
224.09553	5087.5
228.37195	5750.4
232.64527	6461.1
236.91549	7246.2
241.18261	7911.2
245.44663	8541.3
249.70755	9102.8
253.96539	9583.4
258.22014	10016.2
262.4718	10390.7
266.72039	10673.9
270.96589	10839.3
275.20832	10881.4
279.44768	10862.6
283.68397	10797.4
287.91719	10717.6
292.14735	10751.6
296.37445	10846.2
300.59849	11058
304.81948	11251.8
309.03742	11351.9
313.25231	11264
317.46415	10841.7
321.67296	10258.4
325.87872	9791.4
330.08145	9559.5
334.28114	9581.1
338.47781	9674.5
342.67145	9871.7
346.86207	10153.9
351.04966	10558.1
355.23424	11027.6
359.4158	11393.9
363.59435	11609.7
367.76989	11704.8
371.94243	11720.1
376.11196	11745
380.27849	11723.1
384.44203	11708
388.60257	11636.6
392.76012	11664.3
396.91468	11810.6
401.06626	12055.8
405.21485	12239.2
409.36047	12164.5
413.50311	11800.6
417.64277	11449.2
421.77947	11279.6
425.9132	11233.4
430.04396	11272.4
434.17176	11340.3
438.2966	11434.8
442.41849	11667.9
446.53742	11945.3
450.6534	12299
454.76644	12561.4
458.87653	12636.8
462.98368	12581.6
467.08789	12455.3
471.18916	12233.2
475.2875	12027.7
479.38291	11840.7
483.4754	11740.9
487.56496	11580.2
491.6516	11431.5
495.73531	11324.2
499.81612	11323.1
503.89401	11436.9
507.96899	11472.1
512.04106	11566.3
516.11023	11616.8
520.1765	11658.5
524.23987	11609.2
528.30034	11441.1
532.35792	11283.2
536.41261	11126.3
540.46441	10971.1
544.51333	10945
548.55936	11033.8
552.60252	11266.8
556.64279	11539
560.6802	11650.4
564.71473	11742.3
568.7464	12019
572.7752	12244.1
576.80114	12241
580.82422	12119.5
584.84444	12072
588.86181	12074.6
592.87633	12097.7
596.888	12231
600.89682	12511.7
604.9028	13370.8
608.90594	15590
612.90624	18420.8
616.90371	17851
620.89834	13887.3
624.89015	12001.6
628.87913	11721.8
632.86528	11719.9
636.84862	11694
640.82913	11522.2
644.80683	11173.9
648.78172	10923.1
652.75379	10915.6
656.72306	11198.1
660.68952	11539.1
664.65319	11550.5
668.61405	11225.1
672.57211	11049.8
676.52738	11051.8
680.47986	11022.2
684.42955	11019.7
688.37646	10998.4
692.32058	11013.3
696.26192	11125.1
700.20048	11229.4
704.13626	11332.8
708.06928	11296.8
711.99952	11206.7
715.927	11153.3
719.85171	11197
723.77365	11152.9
727.69284	11060.9
731.60928	10975.2
735.52295	10934.8
739.43388	10987.5
743.34206	11026.9
747.24749	11116.1
751.15017	11221.9
755.05012	11400.6
758.94733	11801.1
762.8418	12583.8
766.73354	13960.1
770.62254	15336.8
774.50882	15934.5
778.39237	15247.5
782.27321	13754.4
786.15132	12421.7
790.02671	11633.8
793.89938	11310.5
797.76935	11157.5
801.6366	11073.1
805.50115	11025.5
809.36299	10986.2
813.22213	10959.3
817.07857	10933.9
820.93231	10927.8
824.78336	10952.3
828.63172	10984.5
832.47738	11036.7
836.32036	11045.2
840.16066	11039.6
843.99827	11036.1
847.8332	10992.9
851.66546	10973.8
855.49504	10928.7
859.32195	10924.8
863.1462	10876.6
866.96777	10822.2
870.78668	10825.3
874.60293	10828.6
878.41652	10857.6
882.22745	10916.3
886.03573	10935.9
889.84136	10941.5
893.64433	10881.7
897.44466	10862.5
901.24235	10842.8
905.0374	10801.1
908.8298	10836.4
912.61957	10807.9
916.40671	10902.2
920.19121	11019.2
923.97308	11139.2
927.75233	11209.7
931.52895	11244.3
935.30295	11185.9
939.07433	10945.6
942.84309	10751.6
946.60924	10655.8
950.37278	10599.4
954.13371	10529.2
957.89203	10521.7
961.64774	10448.4
965.40086	10454
969.15137	10401.7
972.89929	10348.4
976.64461	10329.6
980.38733	10337.2
984.12747	10359.4
987.86502	10444.2
991.59999	10609
995.33237	10786.2
999.06217	11062.6
1002.78939	11420
1006.51404	11704.1
1010.23611	11847.7
1013.95561	12013.2
1017.67255	12040.3
1021.38692	11940.9
1025.09872	11837.5
1028.80796	11906.6
1032.51465	12177.6
1036.21877	12446.8
1039.92035	12467.1
1043.61937	12298.6
1047.31584	12008.2
1051.00976	11707.5
1054.70114	11551
1058.38998	11533.7
1062.07627	11585.7
1065.76003	11641.8
1069.44126	11716.3
1073.11995	11773.6
1076.79611	11885.8
1080.46974	11935
1084.14085	12070.5
1087.80943	12259.5
1091.47549	12354.5
1095.13903	12237.7
1098.80005	12006.3
1102.45857	11731.2
1106.11456	11603.6
1109.76805	11592.3
1113.41903	11751.3
1117.06751	11931.2
1120.71348	12176.7
1124.35696	12431.5
1127.99793	12669.8
1131.63641	12722.3
1135.2724	12445.9
1138.90589	12137.6
1142.5369	11936.4
1146.16542	11804.7
1149.79145	11773.1
1153.415	11774.3
1157.03607	11914.3
1160.65467	12115.1
1164.27079	12442.6
1167.88443	12997
1171.49561	13743.1
1175.10432	14929.6
1178.71056	16505.2
1182.31434	17759.5
1185.91565	18395.5
1189.51451	18375.3
1193.11091	17658.7
1196.70485	16585.2
1200.29634	15724.6
1203.88538	15060.1
1207.47197	14402.9
1211.05612	13877.6
1214.63782	13584.8
1218.21708	13534.6
1221.79391	13542.1
1225.36829	13679.4
1228.94024	13755.2
1232.50976	13714.6
1236.07685	13688.6
1239.6415	13614.7
1243.20374	13581.3
1246.76355	13633.3
1250.32093	13772.2
1253.8759	14046.1
1257.42845	14441.8
1260.97859	14816
1264.52631	15089.4
1268.07163	15420.7
1271.61453	15765.9
1275.15503	16149.2
1278.69312	16525.5
1282.22882	16815.9
1285.76211	17107.1
1289.29301	17446.7
1292.82151	17833.8
1296.34761	18314.5
1299.87133	18995.5
1303.39266	20095.5
1306.9116	21649.3
1310.42815	23507
1313.94233	24836.8
1317.45412	24884.6
1320.96354	24035.4
1324.47058	22933.6
1327.97525	21949.9
1331.47754	21310.5
1334.97747	21049.5
1338.47502	21148.6
1341.97022	21418.1
1345.46305	21601.2
1348.95352	21710.2
1352.44163	22022.1
1355.92738	22832.5
1359.41078	24534.8
1362.89183	26531.6
1366.37053	26248
1369.84688	23406.4
1373.32088	20369.1
1376.79254	18359.6
1380.26186	17469.6
1383.72883	17033.2
1387.19347	16780.2
1390.65578	16440.6
1394.11575	16250.3
1397.57339	16259.7
1401.0287	16497.5
1404.48168	16835.8
1407.93234	17116
1411.38068	17328.8
1414.82669	17195.3
1418.27039	16833.1
1421.71177	16333.4
1425.15083	15910.4
1428.58758	15623.9
1432.02203	15522.1
1435.45416	15602.7
1438.88399	15690.3
1442.31151	15808.1
1445.73673	15906.1
1449.15965	16045.8
1452.58027	16085.5
1455.9986	16081.4
1459.41463	16071.3
1462.82837	16220.7
1466.23982	16452.5
1469.64898	16729.3
1473.05586	16930.7
1476.46045	17051.4
1479.86276	17194.1
1483.26279	17346.1
1486.66054	17544.1
1490.05602	17813.4
1493.44922	18253.1
1496.84016	18737.3
1500.22882	19422
1503.61521	20448.3
1506.99934	21740.4
1510.38121	23168
1513.76081	24097.9
1517.13816	23646.8
1520.51324	22012.4
1523.88607	20203.2
1527.25665	18869.7
1530.62498	17997.5
1533.99105	17495.4
1537.35488	17181
1540.71647	16992.4
1544.07581	16867.2
1547.4329	16760.8
1550.78776	16627.7
1554.14038	16564.5
1557.49077	16663.6
1560.83892	16808.4
1564.18484	16906.4
1567.52853	17032.3
1570.86999	17109.5
1574.20922	17170.5
1577.54624	17136.8
1580.88103	16849.5
1584.2136	16499.8
1587.54395	16516.6
1590.87208	17017.4
1594.19801	17949.4
1597.52172	19045.1
1600.84321	19564.8
1604.16251	18989.7
1607.47959	17796.8
1610.79447	16524
1614.10715	15317
1617.41763	14360
1620.7259	13698.9
1624.03199	13373.9
1627.33587	13371.6
1630.63757	13682.9
1633.93707	14332.2
1637.23439	15271
1640.52951	16413.7
1643.82246	17654.7
1647.11321	18789
1650.40179	19431.6
1653.68819	18841.5
1656.97241	16951.2
1660.25446	14818.8
1663.53433	13208.7
1666.81203	12210.4
1670.08756	11618.1
1673.36092	11246.2
1676.63211	10997.7
1679.90115	10842.4
1683.16801	10732.9
1686.43272	10626.1
1689.69527	10547.7
1692.95567	10471.1
1696.2139	10410.2
1699.46999	10362.5
1702.72392	10334.4
1705.97571	10325
1709.22535	10385.2
1712.47284	10378.3
1715.71819	10420.9
1718.96139	10407.3
1722.20246	10391.5
1725.44139	10370.2
1728.67818	10345.7
1731.91284	10277.6
1735.14537	10243.5
1738.37576	10166.3
1741.60403	10144.8
1744.83017	10113.6
1748.05418	10097.9
1751.27607	10064
1754.49584	10036.1
1757.71349	10026.1
1760.92903	9977.4
1764.14244	9990.6
1767.35375	9983.6
1770.56294	9964.9
1773.77002	9977.4
1776.97499	9961.8
1780.17785	9968.9
1783.37861	10001.2
1786.57727	9991.9
1789.77382	9980.7
1792.96828	9954.7
1796.16064	9946.1
1799.3509	9963.6
1802.53907	9948.2
1805.72514	9930
1808.90913	9913
1812.09102	9879.5
1815.27083	9877.1
1818.44856	9841.7
1821.6242	9843.1
1824.79776	9827.3
1827.96924	9835.6
1831.13864	9812.1
1834.30597	9821.8
1837.47122	9834.9
1840.6344	9830.7
1843.7955	9809.3
1846.95454	9825.7
1850.11151	9803.5
1853.26642	9845
1856.41926	9849.6
1859.57004	9877.5
1862.71876	9861.3
1865.86542	9860.3
1869.01003	9868.8
1872.15258	9855.9
1875.29308	9889.7
1878.43152	9862.4
1881.56792	9875.2
1884.70227	9889.9
1887.83457	9868.6
1890.96482	9882.1
1894.09304	9894.9
1897.21921	9882.5
1900.34335	9926.5
1903.46544	9908.9
1906.58551	9886.7
1909.70353	9901.5
1912.81953	9895.2
1915.93349	9882.6
1919.04543	9873.4
1922.15534	9882.5
1925.26322	9843.2
1928.36908	9826.2
1931.47292	9805
1934.57473	9763.8
1937.67453	9735.1
1940.77232	9681.6
1943.86808	9639.3
1946.96184	9617.2
1950.05358	9602.8
1953.14331	9521
1956.23103	9480.7
1959.31675	9475.3
1962.40046	9459.5
1965.48217	9423.4
1968.56188	9402.7
1971.63959	9351.8
1974.7153	9343.2
1977.78901	9315.2
1980.86073	9278.9
1983.93046	9249.2
1986.99819	9221.2
1990.06394	9205.5
1993.1277	9170.2
1996.18947	9149.5
1999.24925	9138.3
2002.30706	9096.1
2005.36288	9091
2008.41672	9054
2011.46859	9024.3
2014.51848	9000.3
2017.56639	8998.7
2020.61233	9005.2
2023.6563	8969.1
2026.6983	8948.3
2029.73833	8933.7
2032.7764	8898.6
2035.8125	8899.1
2038.84664	8871.9
2041.87881	8867.8
2044.90903	8854.4
2047.93729	8831.6
2050.96359	8812.7
2053.98794	8812.8
2057.01034	8811.5
2060.03078	8812.9
2063.04927	8798.8
2066.06582	8814
2069.08042	8791.6
2072.09307	8768.9
2075.10378	8782.7
2078.11255	8774.7
2081.11938	8768.6
2084.12426	8731.4
2087.12722	8752.9
2090.12824	8762.6
2093.12732	8743.9
2096.12447	8739.1
2099.11969	8748.9
2102.11299	8757.9
2105.10435	8773.3
2108.09379	8780.6
2111.08131	8781
2114.0669	8775.2
2117.05057	8783.4
2120.03233	8795.9
2123.01216	8790.4
2125.99008	8816.6
2128.96609	8815
2131.94018	8803.8
2134.91236	8849.8
2137.88263	8805
2140.851	8849.6
2143.81746	8843.5
2146.78201	8841.5
2149.74466	8854.8
2152.7054	8863.2
2155.66425	8840
2158.6212	8839.8
2161.57625	8822.8
2164.52941	8836.4
2167.48067	8832.5
2170.43004	8835.2
2173.37752	8851.7
2176.32311	8846
2179.26681	8854.4
2182.20863	8848.1
2185.14856	8836.9
2188.08661	8847.1
2191.02278	8875.7
2193.95707	8863.3
2196.88948	8841
2199.82001	8857.3
2202.74867	8832.3
2205.67545	8851
2208.60037	8849.4
2211.52341	8816.8
2214.44458	8834.5
2217.36388	8825.7
2220.28132	8808
2223.1969	8773
2226.11061	8774.4
2229.02246	8771.5
2231.93245	8740.1
2234.84058	8725.7
2237.74686	8707.6
2240.65128	8724.2
2243.55385	8697.1
2246.45456	8688.9
2249.35343	8650.5
2252.25044	8663.6
2255.14561	8672.6
2258.03893	8660.2
2260.93041	8628.5
2263.82004	8618
2266.70783	8609
2269.59378	8581.4
2272.4779	8558.9
2275.36017	8562
2278.24061	8538.2
2281.11922	8529.1
2283.996	8516.5
2286.87094	8478.1
2289.74405	8480.8
2292.61534	8478.1
2295.4848	8458.3
2298.35243	8473.3
2301.21824	8468.1
2304.08223	8500.8
2306.94439	8477.3
2309.80474	8483.7
2312.66327	8492.7
2315.51999	8486.6
2318.37489	8471.1
2321.22797	8461.8
2324.07925	8489.3
2326.92871	8441
2329.77637	8457.6
2332.62222	8458.6
2335.46626	8437.9
2338.3085	8441.3
2341.14893	8433.8
2343.98756	8450.7
2346.8244	8459.2
2349.65943	8465.2
2352.49267	8461.9
2355.32411	8435.7
2358.15376	8437
2360.98161	8453
2363.80768	8445.3
2366.63195	8456.1
2369.45444	8426.2
2372.27514	8387.4
2375.09405	8406.1
2377.91118	8373.5
2380.72652	8368.4
2383.54009	8307.9
2386.35187	8325.9
2389.16188	8294.2
2391.97011	8255.4
2394.77657	8271.9
2397.58125	8258.2
2400.38416	8257.6
2403.18529	8237
2405.98466	8239.8
2408.78226	8197.8
2411.57809	8201.1
2414.37216	8183.4
2417.16446	8164.8
2419.955	8159.4
2422.74378	8168.3
2425.5308	8153.7
2428.31606	8132.7
2431.09956	8134.1
2433.88131	8131.6
2436.6613	8150.9
2439.43954	8131.1
2442.21603	8152.2
2444.99077	8130.1
2447.76377	8127.4
2450.53501	8111.3
2453.30451	8112.7
2456.07226	8115.2
2458.83827	8107
2461.60254	8111.9
2464.36507	8117.2
2467.12586	8084.6
2469.88492	8101.6
2472.64224	8116.9
2475.39782	8115.8
2478.15167	8109.3
2480.90379	8101.1
2483.65417	8126.9
2486.40283	8120.1
2489.14976	8151.6
2491.89497	8153.8
2494.63845	8145.4
2497.3802	8138.3
2500.12024	8130.6
2502.85855	8145.3
2505.59514	8127.5
2508.33002	8142.7
2511.06318	8117.7
2513.79462	8110.4
2516.52435	8060.4
2519.25237	8075
2521.97867	8088.5
2524.70327	8058.4
2527.42616	8024.1
2530.14734	8042.8
2532.86681	8030.7
2535.58458	8028.6
2538.30065	8015.3
2541.01501	8029.5
2543.72768	8017.4
2546.43864	8004.2
2549.14791	8007
2551.85548	7981.1
2554.56136	7987
2557.26554	7964.9
2559.96803	7957.2
2562.66883	7968.9
2565.36794	7971.3
2568.06536	7951.5
2570.7611	7945.5
2573.45514	7945.6
2576.14751	7915.8
2578.83819	7912
2581.52719	7919.5
2584.21451	7918.9
2586.90015	7911
2589.58411	7908.4
2592.2664	7922
2594.94701	7907.8
2597.62594	7879.1
2600.30321	7906.4
2602.9788	7897.8
2605.65273	7890.9
2608.32498	7872.1
2610.99557	7886.1
2613.66449	7877.8
2616.33175	7895.6
2618.99734	7862.1
2621.66128	7897.7
2624.32355	7890.3
2626.98416	7887.3
2629.64311	7875.8
2632.30041	7867.8
2634.95605	7870.2
2637.61004	7866
2640.26238	7842.9
2642.91306	7839.5
2645.56209	7847.5
2648.20948	7834.4
2650.85521	7816.7
2653.4993	7805.4
2656.14175	7821.6
2658.78255	7821.2
2661.42171	7830.3
2664.05923	7823.1
2666.6951	7837
2669.32934	7843.5
2671.96194	7869.1
2674.59291	7870.2
2677.22224	7841.7
2679.84993	7866.9
2682.476	7850.2
2685.10043	7849.5
2687.72324	7851
2690.34441	7860.7
2692.96396	7821.2
2695.58188	7826.2
2698.19818	7853.2
2700.81285	7852.8
2703.4259	7845.7
2706.03733	7837.6
2708.64714	7812.1
2711.25533	7836.2
2713.86191	7830.1
2716.46687	7853.5
2719.07021	7851.8
2721.67194	7871.1
2724.27206	7867.2
2726.87057	7861.8
2729.46747	7879.5
2732.06276	7885.4
2734.65644	7869.9
2737.24852	7870.2
2739.83899	7866.8
2742.42786	7869.3
2745.01513	7836.1
2747.60079	7833.1
2750.18486	7820.5
2752.76733	7839
2755.3482	7844.2
2757.92747	7858.1
2760.50515	7823.8
2763.08123	7820.8
2765.65573	7825.1
2768.22863	7820
2770.79994	7805.4
2773.36967	7807.3
2775.9378	7812.1
2778.50435	7807.2
2781.06932	7802.1
2783.6327	7796.2
2786.1945	7769.8
2788.75471	7782
2791.31335	7761.1
2793.87041	7762.3
2796.42589	7736.5
2798.97979	7737.4
2801.53212	7729.4
2804.08288	7738.3
2806.63206	7669.6
2809.17967	7682.6
2811.72571	7665.4
2814.27018	7655.4
2816.81308	7673.1
2819.35442	7700.9
2821.89419	7658.9
2824.43239	7663.2
2826.96904	7676.6
2829.50412	7673.6
2832.03763	7663.3
2834.56959	7678.9
2837.1	7655.7
2839.62884	7634.1
2842.15613	7653.8
2844.68186	7683.8
2847.20604	7670.9
2849.72867	7710.7
2852.24974	7696
2854.76927	7674.7
2857.28724	7674.7
2859.80367	7667.9
2862.31855	7638.5
2864.83189	7632.8
2867.34368	7630.1
2869.85393	7638
2872.36264	7626.3
2874.8698	7629.4
2877.37543	7632.4
2879.87952	7619.5
2882.38207	7634.5
2884.88308	7607.7
2887.38256	7604
2889.88051	7625.6
2892.37692	7606.2
2894.8718	7625.2
2897.36515	7635.3
2899.85698	7640.1
2902.34727	7634.9
2904.83604	7632.9
2907.32328	7653.5
2909.809	7650
2912.29319	7661.4
2914.77587	7677.5
2917.25702	7656.2
2919.73665	7648.5
2922.21476	7660.2
2924.69136	7660.1
2927.16644	7637.6
2929.64	7626.5
2932.11205	7619.8
2934.58258	7610.7
2937.05161	7615.3
2939.51912	7626.4
2941.98513	7573.6
2944.44962	7561.4
2946.91261	7534.2
2949.37409	7554.5
2951.83407	7540.9
2954.29254	7544
2956.74951	7535.4
2959.20498	7522
2961.65895	7498.1
2964.11142	7535.9
2966.56239	7482.3
2969.01186	7493.3
2971.45984	7477.2
2973.90632	7491.1
2976.35131	7471.9
2978.7948	7448.7
2981.23681	7432.1
2983.67732	7430.9
2986.11635	7398.4
2988.55388	7388.7
2990.98993	7361.3
2993.4245	7375.2
2995.85758	7342
2998.28917	7355.2
3000.71928	7328.6
3003.14791	7307.8
3005.57506	7311.8
3008.00073	7289.8
3010.42493	7294.1
3012.84764	7275.4
3015.26888	7285
3017.68865	7267.7
3020.10694	7266.9
3022.52376	7237.4
3024.9391	7226
3027.35298	7244.2
3029.76539	7227.5
3032.17632	7223.9
3034.5858	7190.7
3036.9938	7192.6
3039.40034	7189.1
3041.80542	7183.1
3044.20903	7165.3
3046.61118	7173.3
3049.01187	7156.5
3051.4111	7169.8
3053.80888	7143
3056.20519	7133.3
3058.60005	7101.8
3060.99345	7077.1
3063.3854	7077.8
3065.7759	7042.9
3068.16494	7045.9
3070.55254	7014.8
3072.93868	7000.6
3075.32338	6996.9
3077.70662	6991.2
3080.08842	6965.6
3082.46878	6961.6
3084.84769	6943.3
3087.22515	6985.2
3089.60118	6971.1
3091.97576	6943.9
3094.3489	6970.2
3096.72061	6945.3
3099.09087	6950.1
3101.4597	6947.7
3103.82709	6955.8
3106.19305	6951.6
3108.55757	6926.7
3110.92066	6919.1
3113.28232	6915.7
3115.64255	6905.1
3118.00134	6883.9
3120.35871	6892
3122.71466	6887.3
3125.06917	6873.7
3127.42226	6858.4
3129.77393	6858.8
3132.12417	6836.9
3134.47299	6860.9
3136.82039	6871.8
3139.16636	6850.2
3141.51092	6863.8
3143.85406	6862.8
3146.19579	6863.9
3148.53609	6869.8
3150.87499	6887.2
3153.21246	6879.6
3155.54853	6896.7
3157.88318	6909.2
3160.21642	6905
3162.54826	6890
3164.87868	6892.9
3167.2077	6927.5
3169.5353	6907.3
3171.86151	6904.1
3174.18631	6897.5
3176.5097	6896
3178.83169	6882.7
3181.15228	6887.2
3183.47147	6868.5
3185.78926	6865.5
3188.10565	6874.2
3190.42065	6863.7
3192.73424	6875.1
3195.04645	6894.4
3197.35725	6866.6
3199.66667	6883.4
3201.97469	6869.8
3204.28132	6882.1
3206.58656	6882.5
3208.8904	6903.9
3211.19287	6899.3
3213.49394	6936.4
3215.79363	6918.9
3218.09193	6909.3
3220.38884	6902.5
3222.68438	6921
3224.97853	6902.3
3227.2713	6901.4
3229.56269	6902.3
3231.8527	6892.1
3234.14133	6896.3
3236.42858	6875.4
3238.71446	6876.7
3240.99896	6871.4
3243.28209	6858.8
3245.56384	6844.3
3247.84423	6850.3
3250.12324	6836
3252.40088	6828.5
3254.67715	6820.2
3256.95205	6842.8
3259.22558	6851
3261.49775	6810.8
3263.76855	6811.5
3266.03799	6807.6
3268.30606	6798.1
3270.57277	6787.9
3272.83812	6763.4
3275.10211	6772.1
3277.36474	6755
3279.62601	6758
3281.88593	6749.5
3284.14448	6738.8
3286.40168	6762.2
3288.65753	6752
3290.91202	6738.9
3293.16516	6725.2
3295.41695	6717
3297.66738	6649
3299.91647	6640.7
3302.16421	6602
3304.4106	6577.4
3306.65564	6543.6
3308.89933	6518.9
3311.14169	6478.7
3313.38269	6423
3315.62236	6368.5
3317.86068	6330.2
3320.09766	6280.1
3322.3333	6262
3324.5676	6227.1
3326.80056	6145.2
3329.03219	6105.9
3331.26248	1.6
3333.49143	-0.9
3335.71905	-0.3
