Data from AgNPs_UA_2uM_CRN_0uM_R6G_10uM_Q_RamanShift__20__13-24-21-921.txt Node

Date: Wed Jul 13 13:24:21 BST 2022
User: TCL
Spectrometer: QEP01345
Trigger mode: 4
Integration Time (sec): 7.000000E0
Scans to average: 10
Electric dark correction enabled: true
Nonlinearity correction enabled: false
Boxcar width: 0
XAxis mode: Raman Shifts
Number of Pixels in Spectrum: 1044
>>>>>Begin Spectral Data<<<<<
46.04893	-1.9625
50.45542	-1.2625
54.85868	-0.5625
59.25871	-0.5625
63.6555	94.6375
68.04907	100.4375
72.43941	103.0375
76.82654	112.1375
81.21044	115.9375
85.59113	119.3375
89.96862	127.9375
94.34289	128.0375
98.71396	134.9375
103.08183	135.4375
107.4465	140.7375
111.80798	140.8375
116.16626	148.3375
120.52136	150.9375
124.87327	156.4375
129.222	162.6375
133.56755	173.8375
137.90993	189.2375
142.24913	202.1375
146.58517	222.5375
150.91804	257.8375
155.24774	308.5375
159.57429	376.3375
163.89768	475.0375
168.21792	627.4375
172.53501	858.0375
176.84895	1192.5375
181.15975	1669.3375
185.46741	2328.5375
189.77193	3196.9375
194.07331	4256.2375
198.37157	5462.7375
202.6667	6719.2375
206.9587	7965.8375
211.24758	9146.3375
215.53334	10397.8375
219.81599	11720.2375
224.09553	13194.3375
228.37195	14864.2375
232.64527	16607.0375
236.91549	18483.3375
241.18261	20373.8375
245.44663	22055.0375
249.70755	23527.1375
253.96539	24847.8375
258.22014	25998.0375
262.4718	26916.1375
266.72039	27551.3375
270.96589	27802.7375
275.20832	27788.0375
279.44768	27583.8375
283.68397	27347.7375
287.91719	27102.7375
292.14735	26956.3375
296.37445	26926.5375
300.59849	27041.1375
304.81948	27171.5375
309.03742	27254.2375
313.25231	27143.8375
317.46415	26759.8375
321.67296	26232.0375
325.87872	25863.5375
330.08145	25683.4375
334.28114	25762.2375
338.47781	26033.0375
342.67145	26395.0375
346.86207	26899.9375
351.04966	27386.1375
355.23424	27993.3375
359.4158	28435.5375
363.59435	28775.1375
367.76989	29001.2375
371.94243	29153.5375
376.11196	29292.8375
380.27849	29483.7375
384.44203	29650.2375
388.60257	29809.9375
392.76012	30048.1375
396.91468	30393.3375
401.06626	30821.7375
405.21485	31128.7375
409.36047	31011.5375
413.50311	30648.7375
417.64277	30397.2375
421.77947	30386.2375
425.9132	30518.7375
430.04396	30741.7375
434.17176	30995.8375
438.2966	31392.1375
442.41849	32073.9375
446.53742	33024.7375
450.6534	33957.8375
454.76644	34543.1375
458.87653	34608.7375
462.98368	34233.5375
467.08789	33622.0375
471.18916	33103.9375
475.2875	32599.0375
479.38291	32251.6375
483.4754	31943.0375
487.56496	31608.8375
491.6516	31325.1375
495.73531	31071.4375
499.81612	31018.0375
503.89401	31140.5375
507.96899	31252.5375
512.04106	31248.0375
516.11023	31160.1375
520.1765	31092.3375
524.23987	31076.0375
528.30034	30979.0375
532.35792	30792.7375
536.41261	30465.0375
540.46441	30150.9375
544.51333	30163.8375
548.55936	30451.6375
552.60252	31042.7375
556.64279	31613.5375
560.6802	32062.4375
564.71473	32283.0375
568.7464	32768.6375
572.7752	33440.1375
576.80114	33838.9375
580.82422	34443.4375
584.84444	35248.5375
588.86181	36236.0375
592.87633	37410.5375
596.888	37869.0375
600.89682	37689.4375
604.9028	38573.4375
608.90594	41230.9375
612.90624	43196.9375
616.90371	39759.9375
620.89834	34456.4375
624.89015	32704.7375
628.87913	32658.8375
632.86528	32589.3375
636.84862	32222.9375
640.82913	31645.5375
644.80683	30945.6375
648.78172	30448.3375
652.75379	30515.3375
656.72306	30976.6375
660.68952	31388.1375
664.65319	31134.1375
668.61405	30683.3375
672.57211	30569.1375
676.52738	30576.1375
680.47986	30480.0375
684.42955	30304.3375
688.37646	30299.9375
692.32058	30524.0375
696.26192	30840.8375
700.20048	31168.7375
704.13626	31361.9375
708.06928	31211.1375
711.99952	31032.4375
715.927	31026.8375
719.85171	31099.7375
723.77365	30996.3375
727.69284	30693.0375
731.60928	30538.6375
735.52295	30597.7375
739.43388	30659.6375
743.34206	30776.5375
747.24749	30890.7375
751.15017	31093.8375
755.05012	31557.6375
758.94733	32453.5375
762.8418	34111.4375
766.73354	36522.3375
770.62254	38548.8375
774.50882	38560.8375
778.39237	36712.0375
782.27321	34405.1375
786.15132	32603.0375
790.02671	31463.2375
793.89938	31022.8375
797.76935	30858.6375
801.6366	30739.9375
805.50115	30660.2375
809.36299	30548.3375
813.22213	30362.7375
817.07857	30239.8375
820.93231	30163.3375
824.78336	30132.8375
828.63172	30195.6375
832.47738	30229.4375
836.32036	30296.2375
840.16066	30414.9375
843.99827	30600.7375
847.8332	30472.4375
851.66546	30398.5375
855.49504	30385.5375
859.32195	30357.9375
863.1462	30281.9375
866.96777	30178.7375
870.78668	30090.4375
874.60293	30149.9375
878.41652	30205.6375
882.22745	30346.9375
886.03573	30371.5375
889.84136	30327.9375
893.64433	30200.4375
897.44466	30075.3375
901.24235	29984.5375
905.0374	29936.2375
908.8298	29873.9375
912.61957	29956.2375
916.40671	30229.3375
920.19121	30589.5375
923.97308	30997.4375
927.75233	31155.5375
931.52895	31012.9375
935.30295	30629.5375
939.07433	30083.6375
942.84309	29709.8375
946.60924	29659.2375
950.37278	29561.7375
954.13371	29416.5375
957.89203	29295.6375
961.64774	29186.3375
965.40086	29140.9375
969.15137	29087.8375
972.89929	29018.1375
976.64461	28967.3375
980.38733	29011.0375
984.12747	29182.6375
987.86502	29472.0375
991.59999	29878.5375
995.33237	30602.1375
999.06217	31550.4375
1002.78939	32525.6375
1006.51404	32924.9375
1010.23611	33061.4375
1013.95561	33282.4375
1017.67255	33355.2375
1021.38692	32997.2375
1025.09872	32759.0375
1028.80796	33143.2375
1032.51465	34147.7375
1036.21877	34819.3375
1039.92035	34703.5375
1043.61937	34062.8375
1047.31584	33154.5375
1051.00976	32246.4375
1054.70114	31816.6375
1058.38998	31822.4375
1062.07627	31967.2375
1065.76003	32034.6375
1069.44126	32246.8375
1073.11995	32529.7375
1076.79611	32915.4375
1080.46974	33151.3375
1084.14085	33497.6375
1087.80943	33815.9375
1091.47549	33933.3375
1095.13903	33721.8375
1098.80005	33192.8375
1102.45857	32679.6375
1106.11456	32463.9375
1109.76805	32499.0375
1113.41903	32709.5375
1117.06751	32962.9375
1120.71348	33335.3375
1124.35696	33611.3375
1127.99793	33895.5375
1131.63641	33857.5375
1135.2724	33563.4375
1138.90589	33331.2375
1142.5369	33213.3375
1146.16542	33231.9375
1149.79145	33410.8375
1153.415	33578.5375
1157.03607	34008.7375
1160.65467	34698.7375
1164.27079	35928.4375
1167.88443	37606.5375
1171.49561	39917.5375
1175.10432	42973.0375
1178.71056	46641.2375
1182.31434	49759.6375
1185.91565	50772.3375
1189.51451	49836.9375
1193.11091	47808.0375
1196.70485	45597.9375
1200.29634	43700.4375
1203.88538	42285.6375
1207.47197	41269.8375
1211.05612	40528.5375
1214.63782	40127.6375
1218.21708	40028.1375
1221.79391	40277.4375
1225.36829	40492.9375
1228.94024	39995.7375
1232.50976	39008.8375
1236.07685	38133.3375
1239.6415	37666.3375
1243.20374	37543.8375
1246.76355	37790.9375
1250.32093	38263.9375
1253.8759	39031.5375
1257.42845	40036.8375
1260.97859	41072.0375
1264.52631	42067.6375
1268.07163	43143.4375
1271.61453	44267.8375
1275.15503	45661.3375
1278.69312	46988.1375
1282.22882	48196.4375
1285.76211	49270.3375
1289.29301	50393.3375
1292.82151	51854.2375
1296.34761	53941.0375
1299.87133	56843.8375
1303.39266	60346.3375
1306.9116	64613.6375
1310.42815	68855.2375
1313.94233	71552.2375
1317.45412	71421.9375
1320.96354	69420.9375
1324.47058	66975.8375
1327.97525	64705.3375
1331.47754	62930.7375
1334.97747	61868.2375
1338.47502	61272.3375
1341.97022	60900.3375
1345.46305	60482.9375
1348.95352	60174.9375
1352.44163	60327.0375
1355.92738	61857.0375
1359.41078	65012.6375
1362.89183	67513.7375
1366.37053	66060.8375
1369.84688	60562.2375
1373.32088	54210.3375
1376.79254	50012.6375
1380.26186	48375.2375
1383.72883	48105.7375
1387.19347	48080.2375
1390.65578	47676.9375
1394.11575	47608.9375
1397.57339	48183.8375
1401.0287	49159.7375
1404.48168	50033.4375
1407.93234	50192.7375
1411.38068	49528.7375
1414.82669	48197.1375
1418.27039	46533.4375
1421.71177	44822.3375
1425.15083	43410.8375
1428.58758	42844.6375
1432.02203	43245.0375
1435.45416	44263.1375
1438.88399	45353.8375
1442.31151	46204.3375
1445.73673	46863.5375
1449.15965	47232.8375
1452.58027	47273.4375
1455.9986	47169.5375
1459.41463	47307.9375
1462.82837	47885.2375
1466.23982	48871.2375
1469.64898	49635.7375
1473.05586	50204.9375
1476.46045	50314.9375
1479.86276	50047.0375
1483.26279	49624.2375
1486.66054	49346.3375
1490.05602	49407.8375
1493.44922	49623.0375
1496.84016	49957.0375
1500.22882	50741.4375
1503.61521	52035.6375
1506.99934	53777.6375
1510.38121	55319.7375
1513.76081	55588.6375
1517.13816	54360.5375
1520.51324	52106.3375
1523.88607	50282.6375
1527.25665	49292.9375
1530.62498	48860.2375
1533.99105	48749.2375
1537.35488	48473.8375
1540.71647	48027.2375
1544.07581	47261.8375
1547.4329	46480.7375
1550.78776	45686.1375
1554.14038	45048.6375
1557.49077	44571.9375
1560.83892	44458.1375
1564.18484	44500.7375
1567.52853	44656.6375
1570.86999	44922.2375
1574.20922	45410.9375
1577.54624	45684.3375
1580.88103	45380.9375
1584.2136	45487.0375
1587.54395	46609.0375
1590.87208	49068.7375
1594.19801	52648.1375
1597.52172	56157.5375
1600.84321	57218.0375
1604.16251	55007.8375
1607.47959	50814.7375
1610.79447	46423.9375
1614.10715	42578.8375
1617.41763	39612.3375
1620.7259	37731.5375
1624.03199	36828.5375
1627.33587	36944.7375
1630.63757	38054.9375
1633.93707	40399.2375
1637.23439	44162.6375
1640.52951	49292.2375
1643.82246	54865.5375
1647.11321	58655.4375
1650.40179	58311.8375
1653.68819	53695.4375
1656.97241	46965.4375
1660.25446	40831.4375
1663.53433	36407.5375
1666.81203	33699.0375
1670.08756	31936.8375
1673.36092	30841.8375
1676.63211	30051.2375
1679.90115	29557.9375
1683.16801	29151.8375
1686.43272	28855.0375
1689.69527	28649.8375
1692.95567	28470.9375
1696.2139	28392.0375
1699.46999	28353.3375
1702.72392	28268.0375
1705.97571	28212.9375
1709.22535	28193.4375
1712.47284	28139.2375
1715.71819	28173.3375
1718.96139	28068.6375
1722.20246	28021.2375
1725.44139	27878.0375
1728.67818	27814.1375
1731.91284	27683.7375
1735.14537	27529.1375
1738.37576	27401.6375
1741.60403	27295.0375
1744.83017	27247.4375
1748.05418	27174.3375
1751.27607	27155.5375
1754.49584	27103.5375
1757.71349	27084.8375
1760.92903	27049.5375
1764.14244	27018.1375
1767.35375	27021.9375
1770.56294	26979.3375
1773.77002	26991.8375
1776.97499	26919.1375
1780.17785	26890.0375
1783.37861	26841.6375
1786.57727	26779.4375
1789.77382	26801.3375
1792.96828	26750.5375
1796.16064	26729.3375
1799.3509	26680.1375
1802.53907	26631.6375
1805.72514	26562.3375
1808.90913	26529.2375
1812.09102	26480.1375
1815.27083	26422.8375
1818.44856	26344.6375
1821.6242	26332.5375
1824.79776	26307.8375
1827.96924	26257.5375
1831.13864	26209.7375
1834.30597	26237.7375
1837.47122	26229.4375
1840.6344	26208.2375
1843.7955	26210.3375
1846.95454	26173.2375
1850.11151	26188.0375
1853.26642	26160.1375
1856.41926	26166.4375
1859.57004	26166.0375
1862.71876	26168.8375
1865.86542	26137.8375
1869.01003	26090.0375
1872.15258	26114.8375
1875.29308	26081.8375
1878.43152	26081.4375
1881.56792	26112.5375
1884.70227	26060.5375
1887.83457	26010.0375
1890.96482	26031.2375
1894.09304	26008.9375
1897.21921	26004.2375
1900.34335	26013.6375
1903.46544	25984.0375
1906.58551	26016.2375
1909.70353	26002.3375
1912.81953	25937.9375
1915.93349	25952.3375
1919.04543	25874.9375
1922.15534	25821.5375
1925.26322	25776.9375
1928.36908	25739.8375
1931.47292	25755.9375
1934.57473	25677.3375
1937.67453	25617.7375
1940.77232	25518.8375
1943.86808	25468.7375
1946.96184	25435.5375
1950.05358	25335.8375
1953.14331	25268.0375
1956.23103	25210.9375
1959.31675	25134.5375
1962.40046	25076.7375
1965.48217	24985.7375
1968.56188	24949.3375
1971.63959	24854.2375
1974.7153	24788.0375
1977.78901	24737.9375
1980.86073	24674.4375
1983.93046	24555.0375
1986.99819	24510.6375
1990.06394	24466.6375
1993.1277	24411.0375
1996.18947	24300.0375
1999.24925	24317.3375
2002.30706	24277.7375
2005.36288	24172.6375
2008.41672	24146.1375
2011.46859	24034.0375
2014.51848	23989.4375
2017.56639	23928.3375
2020.61233	23857.8375
2023.6563	23820.2375
2026.6983	23775.8375
2029.73833	23726.3375
2032.7764	23725.3375
2035.8125	23692.5375
2038.84664	23632.2375
2041.87881	23649.7375
2044.90903	23574.6375
2047.93729	23557.4375
2050.96359	23559.7375
2053.98794	23531.6375
2057.01034	23505.1375
2060.03078	23484.7375
2063.04927	23459.1375
2066.06582	23436.7375
2069.08042	23445.6375
2072.09307	23404.7375
2075.10378	23432.4375
2078.11255	23429.5375
2081.11938	23397.3375
2084.12426	23314.3375
2087.12722	23300.3375
2090.12824	23286.0375
2093.12732	23296.2375
2096.12447	23345.8375
2099.11969	23341.7375
2102.11299	23325.9375
2105.10435	23347.4375
2108.09379	23347.5375
2111.08131	23414.1375
2114.0669	23405.7375
2117.05057	23426.9375
2120.03233	23472.7375
2123.01216	23455.6375
2125.99008	23462.3375
2128.96609	23517.7375
2131.94018	23542.8375
2134.91236	23559.4375
2137.88263	23556.3375
2140.851	23568.0375
2143.81746	23647.6375
2146.78201	23642.9375
2149.74466	23646.0375
2152.7054	23678.7375
2155.66425	23636.8375
2158.6212	23610.7375
2161.57625	23650.6375
2164.52941	23631.2375
2167.48067	23630.5375
2170.43004	23666.2375
2173.37752	23631.7375
2176.32311	23647.4375
2179.26681	23635.9375
2182.20863	23658.6375
2185.14856	23670.3375
2188.08661	23706.1375
2191.02278	23693.6375
2193.95707	23670.2375
2196.88948	23655.5375
2199.82001	23706.7375
2202.74867	23618.7375
2205.67545	23640.5375
2208.60037	23683.7375
2211.52341	23647.5375
2214.44458	23616.4375
2217.36388	23580.7375
2220.28132	23568.3375
2223.1969	23496.5375
2226.11061	23510.1375
2229.02246	23440.7375
2231.93245	23437.6375
2234.84058	23408.7375
2237.74686	23371.6375
2240.65128	23355.0375
2243.55385	23327.7375
2246.45456	23316.7375
2249.35343	23305.1375
2252.25044	23247.7375
2255.14561	23254.1375
2258.03893	23224.8375
2260.93041	23163.6375
2263.82004	23122.9375
2266.70783	23077.9375
2269.59378	23009.8375
2272.4779	22895.9375
2275.36017	22875.1375
2278.24061	22832.3375
2281.11922	22807.5375
2283.996	22757.0375
2286.87094	22736.5375
2289.74405	22745.7375
2292.61534	22729.7375
2295.4848	22766.0375
2298.35243	22751.7375
2301.21824	22750.2375
2304.08223	22761.7375
2306.94439	22779.8375
2309.80474	22819.5375
2312.66327	22810.1375
2315.51999	22847.8375
2318.37489	22826.7375
2321.22797	22815.3375
2324.07925	22801.6375
2326.92871	22764.9375
2329.77637	22790.1375
2332.62222	22735.6375
2335.46626	22746.4375
2338.3085	22774.4375
2341.14893	22749.0375
2343.98756	22760.0375
2346.8244	22735.1375
2349.65943	22786.8375
2352.49267	22781.8375
2355.32411	22824.6375
2358.15376	22807.7375
2360.98161	22755.1375
2363.80768	22723.9375
2366.63195	22733.4375
2369.45444	22680.2375
2372.27514	22653.1375
2375.09405	22609.3375
2377.91118	22548.5375
2380.72652	22552.0375
2383.54009	22469.5375
2386.35187	22439.0375
2389.16188	22358.8375
2391.97011	22341.0375
2394.77657	22312.5375
2397.58125	22294.1375
2400.38416	22294.1375
2403.18529	22248.6375
2405.98466	22180.0375
2408.78226	22123.0375
2411.57809	22091.4375
2414.37216	22112.2375
2417.16446	22084.4375
2419.955	22048.2375
2422.74378	22038.7375
2425.5308	22036.7375
2428.31606	22032.2375
2431.09956	22010.5375
2433.88131	21956.7375
2436.6613	21984.3375
2439.43954	22017.9375
2442.21603	22023.6375
2444.99077	21982.6375
2447.76377	22018.1375
2450.53501	21986.2375
2453.30451	22027.4375
2456.07226	21975.2375
2458.83827	21980.5375
2461.60254	21949.7375
2464.36507	21964.4375
2467.12586	21909.0375
2469.88492	21910.0375
2472.64224	21900.4375
2475.39782	21959.3375
2478.15167	22006.5375
2480.90379	22005.8375
2483.65417	22035.5375
2486.40283	22068.6375
2489.14976	22088.3375
2491.89497	22041.9375
2494.63845	22099.6375
2497.3802	22114.9375
2500.12024	22135.7375
2502.85855	22088.8375
2505.59514	22073.7375
2508.33002	22066.7375
2511.06318	22062.9375
2513.79462	22002.1375
2516.52435	21959.2375
2519.25237	21937.9375
2521.97867	21919.6375
2524.70327	21961.7375
2527.42616	21902.3375
2530.14734	21893.1375
2532.86681	21882.4375
2535.58458	21921.1375
2538.30065	21895.2375
2541.01501	21893.5375
2543.72768	21860.4375
2546.43864	21902.8375
2549.14791	21850.1375
2551.85548	21839.0375
2554.56136	21802.4375
2557.26554	21752.4375
2559.96803	21778.9375
2562.66883	21727.1375
2565.36794	21711.2375
2568.06536	21692.0375
2570.7611	21672.2375
2573.45514	21692.9375
2576.14751	21656.5375
2578.83819	21661.1375
2581.52719	21662.0375
2584.21451	21686.1375
2586.90015	21685.2375
2589.58411	21654.9375
2592.2664	21660.7375
2594.94701	21611.7375
2597.62594	21639.2375
2600.30321	21631.7375
2602.9788	21604.0375
2605.65273	21587.9375
2608.32498	21593.4375
2610.99557	21616.8375
2613.66449	21588.1375
2616.33175	21635.8375
2618.99734	21682.9375
2621.66128	21652.2375
2624.32355	21652.7375
2626.98416	21665.8375
2629.64311	21642.2375
2632.30041	21639.5375
2634.95605	21646.9375
2637.61004	21603.2375
2640.26238	21580.7375
2642.91306	21559.5375
2645.56209	21523.8375
2648.20948	21530.2375
2650.85521	21498.1375
2653.4993	21501.1375
2656.14175	21504.7375
2658.78255	21554.7375
2661.42171	21548.9375
2664.05923	21570.6375
2666.6951	21568.5375
2669.32934	21574.8375
2671.96194	21564.5375
2674.59291	21600.4375
2677.22224	21610.3375
2679.84993	21595.7375
2682.476	21536.7375
2685.10043	21598.1375
2687.72324	21550.9375
2690.34441	21542.6375
2692.96396	21498.4375
2695.58188	21489.5375
2698.19818	21502.7375
2700.81285	21535.1375
2703.4259	21508.8375
2706.03733	21517.2375
2708.64714	21523.4375
2711.25533	21570.6375
2713.86191	21573.8375
2716.46687	21575.4375
2719.07021	21607.0375
2721.67194	21618.1375
2724.27206	21590.8375
2726.87057	21629.3375
2729.46747	21708.8375
2732.06276	21716.5375
2734.65644	21697.3375
2737.24852	21709.8375
2739.83899	21667.9375
2742.42786	21673.0375
2745.01513	21604.3375
2747.60079	21596.9375
2750.18486	21545.2375
2752.76733	21561.7375
2755.3482	21568.6375
2757.92747	21574.8375
2760.50515	21534.8375
2763.08123	21541.2375
2765.65573	21552.6375
2768.22863	21564.3375
2770.79994	21538.7375
2773.36967	21564.6375
2775.9378	21537.3375
2778.50435	21552.2375
2781.06932	21516.8375
2783.6327	21540.1375
2786.1945	21491.1375
2788.75471	21504.9375
2791.31335	21455.3375
2793.87041	21452.7375
2796.42589	21399.2375
2798.97979	21418.3375
2801.53212	21390.1375
2804.08288	21324.1375
2806.63206	21299.6375
2809.17967	21297.9375
2811.72571	21225.3375
2814.27018	21221.6375
2816.81308	21155.2375
2819.35442	21143.2375
2821.89419	21066.0375
2824.43239	21070.5375
2826.96904	21055.1375
2829.50412	21036.9375
2832.03763	21016.4375
2834.56959	21019.2375
2837.1	20982.2375
2839.62884	20978.7375
2842.15613	20981.7375
2844.68186	20986.7375
2847.20604	20978.8375
2849.72867	20961.7375
2852.24974	20930.5375
2854.76927	20926.4375
2857.28724	20903.8375
2859.80367	20871.2375
2862.31855	20843.4375
2864.83189	20844.7375
2867.34368	20810.8375
2869.85393	20834.0375
2872.36264	20777.5375
2874.8698	20793.7375
2877.37543	20755.6375
2879.87952	20811.6375
2882.38207	20764.1375
2884.88308	20767.8375
2887.38256	20808.0375
2889.88051	20793.4375
2892.37692	20819.8375
2894.8718	20865.9375
2897.36515	20888.0375
2899.85698	20876.5375
2902.34727	20927.3375
2904.83604	20965.8375
2907.32328	21014.0375
2909.809	21013.2375
2912.29319	21040.3375
2914.77587	21040.4375
2917.25702	21055.7375
2919.73665	21014.5375
2922.21476	21027.7375
2924.69136	20917.8375
2927.16644	20954.6375
2929.64	20940.0375
2932.11205	20919.5375
2934.58258	20864.7375
2937.05161	20901.0375
2939.51912	20906.7375
2941.98513	20892.0375
2944.44962	20883.2375
2946.91261	20836.6375
2949.37409	20867.3375
2951.83407	20861.2375
2954.29254	20860.4375
2956.74951	20844.1375
2959.20498	20850.3375
2961.65895	20863.0375
2964.11142	20899.4375
2966.56239	20845.1375
2969.01186	20850.6375
2971.45984	20777.7375
2973.90632	20753.9375
2976.35131	20718.0375
2978.7948	20701.4375
2981.23681	20670.4375
2983.67732	20636.5375
2986.11635	20610.3375
2988.55388	20548.5375
2990.98993	20533.1375
2993.4245	20498.5375
2995.85758	20431.5375
2998.28917	20412.1375
3000.71928	20375.6375
3003.14791	20363.8375
3005.57506	20306.3375
3008.00073	20226.6375
3010.42493	20250.4375
3012.84764	20185.0375
3015.26888	20209.9375
3017.68865	20183.1375
3020.10694	20165.4375
3022.52376	20081.5375
3024.9391	20106.1375
3027.35298	20050.2375
3029.76539	20074.3375
3032.17632	20103.9375
3034.5858	20047.0375
3036.9938	20029.7375
3039.40034	20035.0375
3041.80542	19975.8375
3044.20903	19993.3375
3046.61118	19969.7375
3049.01187	19922.9375
3051.4111	19915.2375
3053.80888	19872.0375
3056.20519	19829.8375
3058.60005	19811.6375
3060.99345	19806.6375
3063.3854	19772.3375
3065.7759	19722.3375
3068.16494	19682.1375
3070.55254	19616.4375
3072.93868	19563.2375
3075.32338	19519.7375
3077.70662	19463.2375
3080.08842	19410.9375
3082.46878	19432.4375
3084.84769	19407.4375
3087.22515	19398.4375
3089.60118	19376.5375
3091.97576	19362.6375
3094.3489	19373.8375
3096.72061	19357.6375
3099.09087	19398.8375
3101.4597	19377.3375
3103.82709	19389.2375
3106.19305	19342.3375
3108.55757	19364.8375
3110.92066	19305.7375
3113.28232	19302.5375
3115.64255	19284.8375
3118.00134	19246.3375
3120.35871	19212.9375
3122.71466	19159.8375
3125.06917	19167.9375
3127.42226	19118.0375
3129.77393	19137.6375
3132.12417	19088.7375
3134.47299	19065.9375
3136.82039	19022.4375
3139.16636	19049.0375
3141.51092	19058.1375
3143.85406	19051.8375
3146.19579	19053.6375
3148.53609	19017.4375
3150.87499	19052.9375
3153.21246	19077.7375
3155.54853	19082.3375
3157.88318	19069.8375
3160.21642	19131.0375
3162.54826	19082.3375
3164.87868	19108.0375
3167.2077	19086.2375
3169.5353	19075.1375
3171.86151	19057.1375
3174.18631	19111.6375
3176.5097	19043.9375
3178.83169	19003.9375
3181.15228	19036.3375
3183.47147	19005.8375
3185.78926	18985.4375
3188.10565	18979.1375
3190.42065	18957.2375
3192.73424	18931.9375
3195.04645	18928.7375
3197.35725	18881.1375
3199.66667	18904.9375
3201.97469	18870.0375
3204.28132	18891.3375
3206.58656	18960.1375
3208.8904	18923.4375
3211.19287	18931.4375
3213.49394	18950.6375
3215.79363	18922.0375
3218.09193	18950.6375
3220.38884	18948.1375
3222.68438	18999.9375
3224.97853	18971.6375
3227.2713	18985.1375
3229.56269	18992.8375
3231.8527	18981.7375
3234.14133	18905.2375
3236.42858	18908.5375
3238.71446	18880.7375
3240.99896	18854.9375
3243.28209	18842.0375
3245.56384	18822.9375
3247.84423	18841.2375
3250.12324	18801.9375
3252.40088	18798.5375
3254.67715	18749.4375
3256.95205	18710.3375
3259.22558	18737.6375
3261.49775	18757.0375
3263.76855	18770.0375
3266.03799	18714.7375
3268.30606	18721.5375
3270.57277	18687.9375
3272.83812	18672.8375
3275.10211	18611.7375
3277.36474	18606.9375
3279.62601	18592.4375
3281.88593	18565.1375
3284.14448	18571.3375
3286.40168	18598.4375
3288.65753	18609.7375
3290.91202	18596.6375
3293.16516	18557.9375
3295.41695	18512.9375
3297.66738	18426.7375
3299.91647	18371.0375
3302.16421	18252.2375
3304.4106	18156.2375
3306.65564	18016.5375
3308.89933	17968.9375
3311.14169	17816.3375
3313.38269	17686.3375
3315.62236	17597.9375
3317.86068	17485.8375
3320.09766	17382.6375
3322.3333	17268.9375
3324.5676	17193.9375
3326.80056	16955.6375
3329.03219	16897.2375
3331.26248	2.9375
3333.49143	1.6375
3335.71905	0.3375
