Data from AgNPs_FTO_APTES_UA_2uM_CRN_200uM_R6G_10uM_NaF_0.1M_Addition_RamanShift__18__16-39-55-372.txt Node

Date: Wed Feb 02 16:39:55 GMT 2022
User: TCL
Spectrometer: QEP01345
Trigger mode: 4
Integration Time (sec): 7.000000E0
Scans to average: 10
Electric dark correction enabled: true
Nonlinearity correction enabled: false
Boxcar width: 0
XAxis mode: Raman Shifts
Number of Pixels in Spectrum: 1044
>>>>>Begin Spectral Data<<<<<
46.04893	0.075
50.45542	-1.125
54.85868	-1.225
59.25871	-0.525
63.6555	65.575
68.04907	70.275
72.43941	72.475
76.82654	77.575
81.21044	82.775
85.59113	85.075
89.96862	86.175
94.34289	92.375
98.71396	97.275
103.08183	100.375
107.4465	99.875
111.80798	99.875
116.16626	106.275
120.52136	109.375
124.87327	109.775
129.222	113.475
133.56755	122.375
137.90993	130.575
142.24913	145.375
146.58517	155.575
150.91804	178.775
155.24774	219.875
159.57429	266.075
163.89768	338.675
168.21792	442.075
172.53501	607.975
176.84895	841.675
181.15975	1179.275
185.46741	1647.175
189.77193	2264.375
194.07331	3027.575
198.37157	3905.475
202.6667	4805.375
206.9587	5729.675
211.24758	6591.075
215.53334	7494.975
219.81599	8430.575
224.09553	9472.975
228.37195	10609.075
232.64527	11829.575
236.91549	13091.775
241.18261	14398.875
245.44663	15615.175
249.70755	16766.675
253.96539	17761.975
258.22014	18637.375
262.4718	19331.075
266.72039	19880.375
270.96589	20197.375
275.20832	20330.675
279.44768	20344.675
283.68397	20315.875
287.91719	20309.175
292.14735	20348.775
296.37445	20485.275
300.59849	20566.575
304.81948	20558.075
309.03742	20329.475
313.25231	19914.475
317.46415	19301.575
321.67296	18656.775
325.87872	18150.975
330.08145	17819.575
334.28114	17710.375
338.47781	17767.275
342.67145	17903.375
346.86207	18099.175
351.04966	18368.475
355.23424	18580.575
359.4158	18826.575
363.59435	18922.175
367.76989	19032.975
371.94243	19090.575
376.11196	19209.475
380.27849	19335.075
384.44203	19432.375
388.60257	19640.975
392.76012	19902.075
396.91468	20197.975
401.06626	20483.275
405.21485	20651.875
409.36047	20612.875
413.50311	20401.875
417.64277	20243.475
421.77947	20305.675
425.9132	20406.675
430.04396	20622.575
434.17176	20768.675
438.2966	20947.675
442.41849	21318.575
446.53742	21914.775
450.6534	22585.175
454.76644	23188.575
458.87653	23486.975
462.98368	23448.875
467.08789	23307.675
471.18916	23129.675
475.2875	23192.475
479.38291	23349.575
483.4754	23407.175
487.56496	23006.275
491.6516	22321.575
495.73531	21605.175
499.81612	21166.875
503.89401	21044.275
507.96899	21032.075
512.04106	20922.175
516.11023	20638.675
520.1765	20282.675
524.23987	19951.475
528.30034	19742.275
532.35792	19518.975
536.41261	19377.875
540.46441	19268.875
544.51333	19388.575
548.55936	19787.675
552.60252	20378.775
556.64279	21034.075
560.6802	21575.375
564.71473	21985.675
568.7464	22579.575
572.7752	23356.075
576.80114	23917.075
580.82422	24354.775
584.84444	24639.475
588.86181	24886.575
592.87633	25071.375
596.888	24966.775
600.89682	24661.275
604.9028	24703.275
608.90594	25546.175
612.90624	26142.975
616.90371	24270.775
620.89834	20914.475
624.89015	19440.875
628.87913	19383.575
632.86528	19634.375
636.84862	19718.075
640.82913	19436.375
644.80683	19004.475
648.78172	18549.875
652.75379	18352.975
656.72306	18403.575
660.68952	18526.975
664.65319	18426.575
668.61405	18193.575
672.57211	18165.275
676.52738	18199.875
680.47986	18261.375
684.42955	18242.475
688.37646	18139.075
692.32058	18176.875
696.26192	18317.075
700.20048	18561.175
704.13626	18684.075
708.06928	18787.275
711.99952	18737.375
715.927	18637.475
719.85171	18659.975
723.77365	18616.475
727.69284	18393.575
731.60928	18230.175
735.52295	18103.375
739.43388	18040.875
743.34206	18080.175
747.24749	18174.075
751.15017	18397.775
755.05012	18828.475
758.94733	19464.875
762.8418	20529.275
766.73354	21977.375
770.62254	23154.475
774.50882	23044.675
778.39237	21777.675
782.27321	20195.875
786.15132	18967.575
790.02671	18234.775
793.89938	17890.075
797.76935	17760.175
801.6366	17755.175
805.50115	17762.975
809.36299	17690.575
813.22213	17530.775
817.07857	17525.075
820.93231	17492.075
824.78336	17376.675
828.63172	17188.175
832.47738	17130.975
836.32036	17079.775
840.16066	17073.175
843.99827	17095.175
847.8332	17005.675
851.66546	16929.075
855.49504	16928.475
859.32195	16868.275
863.1462	16849.275
866.96777	16805.275
870.78668	16771.375
874.60293	16761.275
878.41652	16762.175
882.22745	16786.775
886.03573	16802.375
889.84136	16815.275
893.64433	16819.075
897.44466	16735.575
901.24235	16663.675
905.0374	16563.375
908.8298	16539.475
912.61957	16620.575
916.40671	16861.575
920.19121	17145.075
923.97308	17345.575
927.75233	17211.575
931.52895	16942.675
935.30295	16628.475
939.07433	16297.475
942.84309	16006.175
946.60924	15853.075
950.37278	15805.475
954.13371	15804.375
957.89203	15843.475
961.64774	15890.575
965.40086	15844.575
969.15137	15778.075
972.89929	15614.875
976.64461	15475.775
980.38733	15404.775
984.12747	15410.475
987.86502	15472.975
991.59999	15595.475
995.33237	15780.075
999.06217	16099.475
1002.78939	16501.975
1006.51404	16797.475
1010.23611	16965.475
1013.95561	17161.975
1017.67255	17185.575
1021.38692	17044.675
1025.09872	16782.575
1028.80796	16588.375
1032.51465	16700.875
1036.21877	16883.775
1039.92035	16954.375
1043.61937	16948.175
1047.31584	16867.575
1051.00976	16801.675
1054.70114	16825.775
1058.38998	16965.175
1062.07627	17242.375
1065.76003	17503.875
1069.44126	17697.475
1073.11995	17895.875
1076.79611	18046.275
1080.46974	18099.475
1084.14085	18167.275
1087.80943	18324.975
1091.47549	18558.475
1095.13903	18746.875
1098.80005	18563.175
1102.45857	18142.075
1106.11456	17711.575
1109.76805	17502.575
1113.41903	17485.075
1117.06751	17581.875
1120.71348	17787.875
1124.35696	17990.675
1127.99793	18247.175
1131.63641	18458.175
1135.2724	18428.775
1138.90589	18392.975
1142.5369	18514.375
1146.16542	18769.575
1149.79145	19168.575
1153.415	19574.675
1157.03607	20118.975
1160.65467	20881.575
1164.27079	21983.875
1167.88443	23349.175
1171.49561	24822.875
1175.10432	26686.675
1178.71056	28993.275
1182.31434	31067.475
1185.91565	32172.375
1189.51451	32289.475
1193.11091	31792.675
1196.70485	30951.775
1200.29634	29832.075
1203.88538	28908.275
1207.47197	28421.975
1211.05612	28080.975
1214.63782	27527.275
1218.21708	26670.975
1221.79391	25776.375
1225.36829	25068.975
1228.94024	24440.775
1232.50976	23849.775
1236.07685	23365.875
1239.6415	23180.175
1243.20374	23201.375
1246.76355	23427.475
1250.32093	23752.275
1253.8759	24265.675
1257.42845	24957.475
1260.97859	25722.075
1264.52631	26419.075
1268.07163	27135.775
1271.61453	27922.475
1275.15503	28893.075
1278.69312	29930.275
1282.22882	31012.475
1285.76211	32271.875
1289.29301	33830.075
1292.82151	35852.575
1296.34761	38427.075
1299.87133	41101.675
1303.39266	43686.075
1306.9116	45774.675
1310.42815	47393.175
1313.94233	48383.475
1317.45412	48714.775
1320.96354	48723.775
1324.47058	48859.975
1327.97525	48990.875
1331.47754	49074.675
1334.97747	49032.275
1338.47502	48842.975
1341.97022	48193.475
1345.46305	47035.275
1348.95352	45474.475
1352.44163	43907.675
1355.92738	42981.075
1359.41078	42854.075
1362.89183	42963.975
1366.37053	41968.675
1369.84688	39378.375
1373.32088	36007.775
1376.79254	33767.975
1380.26186	33276.375
1383.72883	33840.575
1387.19347	34604.775
1390.65578	35056.175
1394.11575	35604.675
1397.57339	36532.175
1401.0287	37621.975
1404.48168	38354.575
1407.93234	38167.775
1411.38068	37018.975
1414.82669	35090.475
1418.27039	32713.375
1421.71177	30503.075
1425.15083	28677.175
1428.58758	27683.275
1432.02203	27663.475
1435.45416	28372.575
1438.88399	29555.475
1442.31151	30764.475
1445.73673	31716.875
1449.15965	32656.975
1452.58027	33438.875
1455.9986	33936.575
1459.41463	34374.275
1462.82837	34770.575
1466.23982	35213.375
1469.64898	35507.575
1473.05586	35481.375
1476.46045	35190.375
1479.86276	34544.775
1483.26279	33680.075
1486.66054	32975.975
1490.05602	32612.675
1493.44922	32494.875
1496.84016	32402.275
1500.22882	32588.875
1503.61521	33046.175
1506.99934	33754.275
1510.38121	34469.375
1513.76081	34768.675
1517.13816	34544.575
1520.51324	34014.275
1523.88607	33690.475
1527.25665	33776.775
1530.62498	33994.175
1533.99105	34232.975
1537.35488	34063.075
1540.71647	33577.975
1544.07581	32619.675
1547.4329	31529.475
1550.78776	30556.875
1554.14038	29922.075
1557.49077	29565.175
1560.83892	29392.575
1564.18484	29337.575
1567.52853	29354.175
1570.86999	29533.475
1574.20922	30216.075
1577.54624	31107.875
1580.88103	31912.875
1584.2136	32847.175
1587.54395	34222.075
1590.87208	36046.875
1594.19801	37931.575
1597.52172	39610.275
1600.84321	39828.575
1604.16251	37837.275
1607.47959	34528.975
1610.79447	31003.575
1614.10715	27824.575
1617.41763	25250.775
1620.7259	23431.775
1624.03199	22470.775
1627.33587	22396.175
1630.63757	23177.275
1633.93707	24961.075
1637.23439	28016.675
1640.52951	32174.175
1643.82246	36880.975
1647.11321	40462.175
1650.40179	41091.675
1653.68819	38106.475
1656.97241	32863.475
1660.25446	27578.975
1663.53433	23299.275
1666.81203	20419.075
1670.08756	18504.375
1673.36092	17302.775
1676.63211	16529.775
1679.90115	15992.975
1683.16801	15615.975
1686.43272	15295.775
1689.69527	15103.475
1692.95567	14951.075
1696.2139	14808.475
1699.46999	14719.175
1702.72392	14606.275
1705.97571	14502.575
1709.22535	14420.875
1712.47284	14361.375
1715.71819	14293.375
1718.96139	14244.875
1722.20246	14147.375
1725.44139	14084.475
1728.67818	14002.975
1731.91284	13930.775
1735.14537	13822.875
1738.37576	13761.875
1741.60403	13696.475
1744.83017	13665.475
1748.05418	13628.675
1751.27607	13622.875
1754.49584	13628.275
1757.71349	13599.275
1760.92903	13577.775
1764.14244	13545.975
1767.35375	13487.675
1770.56294	13455.375
1773.77002	13378.875
1776.97499	13345.075
1780.17785	13313.975
1783.37861	13267.875
1786.57727	13236.175
1789.77382	13154.475
1792.96828	13140.175
1796.16064	13090.575
1799.3509	13072.475
1802.53907	13022.875
1805.72514	12983.375
1808.90913	12958.075
1812.09102	12914.475
1815.27083	12883.075
1818.44856	12870.675
1821.6242	12840.575
1824.79776	12825.175
1827.96924	12808.175
1831.13864	12798.675
1834.30597	12797.775
1837.47122	12797.575
1840.6344	12785.675
1843.7955	12770.375
1846.95454	12765.575
1850.11151	12774.075
1853.26642	12751.175
1856.41926	12749.575
1859.57004	12749.475
1862.71876	12698.275
1865.86542	12711.275
1869.01003	12694.575
1872.15258	12676.275
1875.29308	12666.975
1878.43152	12660.875
1881.56792	12630.675
1884.70227	12611.275
1887.83457	12628.975
1890.96482	12607.075
1894.09304	12609.775
1897.21921	12577.975
1900.34335	12573.475
1903.46544	12542.275
1906.58551	12533.875
1909.70353	12514.975
1912.81953	12455.775
1915.93349	12445.075
1919.04543	12400.375
1922.15534	12399.975
1925.26322	12342.775
1928.36908	12318.475
1931.47292	12295.675
1934.57473	12239.475
1937.67453	12199.275
1940.77232	12168.775
1943.86808	12145.375
1946.96184	12120.375
1950.05358	12049.975
1953.14331	12040.075
1956.23103	12001.375
1959.31675	11919.575
1962.40046	11902.175
1965.48217	11854.175
1968.56188	11834.575
1971.63959	11778.475
1974.7153	11796.275
1977.78901	11752.075
1980.86073	11637.875
1983.93046	11621.575
1986.99819	11568.175
1990.06394	11554.275
1993.1277	11520.875
1996.18947	11464.275
1999.24925	11471.875
2002.30706	11429.375
2005.36288	11384.075
2008.41672	11337.675
2011.46859	11314.975
2014.51848	11261.675
2017.56639	11223.475
2020.61233	11174.775
2023.6563	11185.275
2026.6983	11167.475
2029.73833	11142.975
2032.7764	11102.575
2035.8125	11103.175
2038.84664	11065.975
2041.87881	11098.075
2044.90903	11070.975
2047.93729	11021.275
2050.96359	11000.475
2053.98794	10992.175
2057.01034	11000.275
2060.03078	10969.275
2063.04927	10950.975
2066.06582	10935.975
2069.08042	10946.875
2072.09307	10955.075
2075.10378	10924.375
2078.11255	10893.775
2081.11938	10889.775
2084.12426	10879.875
2087.12722	10895.275
2090.12824	10867.775
2093.12732	10853.575
2096.12447	10904.075
2099.11969	10878.775
2102.11299	10866.975
2105.10435	10865.475
2108.09379	10885.275
2111.08131	10874.275
2114.0669	10882.075
2117.05057	10896.575
2120.03233	10882.675
2123.01216	10895.175
2125.99008	10878.475
2128.96609	10889.775
2131.94018	10894.575
2134.91236	10892.875
2137.88263	10857.375
2140.851	10893.375
2143.81746	10901.375
2146.78201	10897.975
2149.74466	10891.075
2152.7054	10893.275
2155.66425	10890.475
2158.6212	10896.875
2161.57625	10853.375
2164.52941	10860.375
2167.48067	10838.175
2170.43004	10853.875
2173.37752	10847.675
2176.32311	10814.875
2179.26681	10828.675
2182.20863	10793.575
2185.14856	10819.575
2188.08661	10830.775
2191.02278	10809.675
2193.95707	10808.675
2196.88948	10790.975
2199.82001	10777.075
2202.74867	10781.775
2205.67545	10764.375
2208.60037	10743.175
2211.52341	10712.475
2214.44458	10701.275
2217.36388	10672.075
2220.28132	10680.575
2223.1969	10654.875
2226.11061	10639.775
2229.02246	10597.975
2231.93245	10576.575
2234.84058	10566.375
2237.74686	10539.175
2240.65128	10525.375
2243.55385	10522.375
2246.45456	10509.375
2249.35343	10457.675
2252.25044	10452.575
2255.14561	10432.275
2258.03893	10406.675
2260.93041	10390.975
2263.82004	10360.675
2266.70783	10339.775
2269.59378	10289.675
2272.4779	10259.375
2275.36017	10234.975
2278.24061	10211.675
2281.11922	10187.675
2283.996	10172.975
2286.87094	10166.175
2289.74405	10155.375
2292.61534	10118.675
2295.4848	10114.375
2298.35243	10103.275
2301.21824	10092.275
2304.08223	10107.375
2306.94439	10104.975
2309.80474	10084.975
2312.66327	10080.275
2315.51999	10075.575
2318.37489	10061.675
2321.22797	10066.675
2324.07925	10029.275
2326.92871	10039.375
2329.77637	10043.475
2332.62222	10025.475
2335.46626	9993.775
2338.3085	10023.875
2341.14893	9964.375
2343.98756	9985.275
2346.8244	9985.875
2349.65943	10005.975
2352.49267	9979.475
2355.32411	9979.775
2358.15376	9988.375
2360.98161	9968.975
2363.80768	9965.175
2366.63195	9940.175
2369.45444	9934.175
2372.27514	9898.175
2375.09405	9920.975
2377.91118	9902.275
2380.72652	9879.775
2383.54009	9864.975
2386.35187	9846.275
2389.16188	9804.475
2391.97011	9815.475
2394.77657	9763.075
2397.58125	9763.775
2400.38416	9749.875
2403.18529	9720.675
2405.98466	9717.775
2408.78226	9693.075
2411.57809	9694.475
2414.37216	9676.875
2417.16446	9670.375
2419.955	9663.075
2422.74378	9655.775
2425.5308	9655.275
2428.31606	9647.775
2431.09956	9629.475
2433.88131	9591.375
2436.6613	9617.275
2439.43954	9591.475
2442.21603	9624.375
2444.99077	9598.775
2447.76377	9601.275
2450.53501	9591.475
2453.30451	9613.175
2456.07226	9599.675
2458.83827	9587.075
2461.60254	9569.175
2464.36507	9593.675
2467.12586	9596.275
2469.88492	9583.775
2472.64224	9596.175
2475.39782	9574.675
2478.15167	9605.775
2480.90379	9583.975
2483.65417	9589.875
2486.40283	9583.475
2489.14976	9600.775
2491.89497	9578.975
2494.63845	9609.175
2497.3802	9618.075
2500.12024	9601.575
2502.85855	9598.975
2505.59514	9593.575
2508.33002	9586.475
2511.06318	9572.175
2513.79462	9584.075
2516.52435	9578.475
2519.25237	9553.675
2521.97867	9552.375
2524.70327	9537.275
2527.42616	9539.775
2530.14734	9547.175
2532.86681	9528.375
2535.58458	9521.275
2538.30065	9513.875
2541.01501	9520.275
2543.72768	9485.475
2546.43864	9481.475
2549.14791	9451.475
2551.85548	9475.875
2554.56136	9450.275
2557.26554	9451.675
2559.96803	9437.875
2562.66883	9424.975
2565.36794	9427.375
2568.06536	9430.375
2570.7611	9412.675
2573.45514	9417.975
2576.14751	9413.475
2578.83819	9414.875
2581.52719	9383.875
2584.21451	9362.575
2586.90015	9403.075
2589.58411	9376.675
2592.2664	9394.475
2594.94701	9381.675
2597.62594	9377.975
2600.30321	9383.475
2602.9788	9367.975
2605.65273	9353.775
2608.32498	9358.975
2610.99557	9377.575
2613.66449	9362.475
2616.33175	9380.875
2618.99734	9423.375
2621.66128	9384.575
2624.32355	9386.175
2626.98416	9374.175
2629.64311	9385.475
2632.30041	9390.675
2634.95605	9399.075
2637.61004	9380.775
2640.26238	9368.275
2642.91306	9358.775
2645.56209	9356.475
2648.20948	9365.475
2650.85521	9370.675
2653.4993	9366.075
2656.14175	9374.275
2658.78255	9398.675
2661.42171	9378.275
2664.05923	9396.475
2666.6951	9403.475
2669.32934	9421.575
2671.96194	9423.075
2674.59291	9398.975
2677.22224	9383.975
2679.84993	9405.675
2682.476	9389.075
2685.10043	9386.175
2687.72324	9360.375
2690.34441	9374.075
2692.96396	9369.975
2695.58188	9371.375
2698.19818	9371.075
2700.81285	9376.575
2703.4259	9395.775
2706.03733	9424.175
2708.64714	9422.875
2711.25533	9416.275
2713.86191	9395.075
2716.46687	9429.875
2719.07021	9418.975
2721.67194	9438.575
2724.27206	9437.175
2726.87057	9457.875
2729.46747	9458.075
2732.06276	9453.175
2734.65644	9460.075
2737.24852	9448.475
2739.83899	9440.875
2742.42786	9476.875
2745.01513	9424.275
2747.60079	9420.975
2750.18486	9419.875
2752.76733	9433.875
2755.3482	9418.575
2757.92747	9450.175
2760.50515	9449.575
2763.08123	9465.775
2765.65573	9467.475
2768.22863	9469.975
2770.79994	9451.175
2773.36967	9489.375
2775.9378	9462.975
2778.50435	9455.175
2781.06932	9444.275
2783.6327	9451.075
2786.1945	9454.375
2788.75471	9446.075
2791.31335	9438.375
2793.87041	9481.575
2796.42589	9407.475
2798.97979	9395.975
2801.53212	9389.075
2804.08288	9378.375
2806.63206	9386.875
2809.17967	9356.375
2811.72571	9329.575
2814.27018	9326.275
2816.81308	9293.475
2819.35442	9302.475
2821.89419	9267.775
2824.43239	9258.875
2826.96904	9256.475
2829.50412	9256.775
2832.03763	9244.075
2834.56959	9236.775
2837.1	9208.175
2839.62884	9242.075
2842.15613	9247.475
2844.68186	9236.975
2847.20604	9285.175
2849.72867	9317.875
2852.24974	9312.475
2854.76927	9302.275
2857.28724	9291.575
2859.80367	9261.275
2862.31855	9266.575
2864.83189	9265.175
2867.34368	9248.075
2869.85393	9246.075
2872.36264	9238.075
2874.8698	9239.475
2877.37543	9250.375
2879.87952	9242.975
2882.38207	9220.475
2884.88308	9239.575
2887.38256	9247.075
2889.88051	9238.875
2892.37692	9257.475
2894.8718	9250.875
2897.36515	9266.875
2899.85698	9246.675
2902.34727	9313.375
2904.83604	9266.875
2907.32328	9332.675
2909.809	9302.475
2912.29319	9304.875
2914.77587	9308.375
2917.25702	9316.675
2919.73665	9300.975
2922.21476	9327.175
2924.69136	9311.475
2927.16644	9337.875
2929.64	9319.675
2932.11205	9315.375
2934.58258	9303.375
2937.05161	9298.275
2939.51912	9289.675
2941.98513	9287.275
2944.44962	9231.975
2946.91261	9194.875
2949.37409	9197.075
2951.83407	9174.775
2954.29254	9183.375
2956.74951	9149.175
2959.20498	9128.275
2961.65895	9123.875
2964.11142	9106.375
2966.56239	9076.175
2969.01186	9063.075
2971.45984	9039.275
2973.90632	9020.275
2976.35131	8978.475
2978.7948	8953.475
2981.23681	8942.175
2983.67732	8906.175
2986.11635	8895.775
2988.55388	8861.275
2990.98993	8875.375
2993.4245	8849.275
2995.85758	8801.075
2998.28917	8798.475
3000.71928	8787.375
3003.14791	8764.975
3005.57506	8728.675
3008.00073	8714.175
3010.42493	8679.575
3012.84764	8659.975
3015.26888	8666.375
3017.68865	8626.775
3020.10694	8624.975
3022.52376	8617.075
3024.9391	8597.775
3027.35298	8581.075
3029.76539	8570.975
3032.17632	8577.775
3034.5858	8561.975
3036.9938	8569.675
3039.40034	8558.775
3041.80542	8561.375
3044.20903	8543.975
3046.61118	8544.675
3049.01187	8514.275
3051.4111	8506.175
3053.80888	8482.075
3056.20519	8463.675
3058.60005	8431.775
3060.99345	8405.775
3063.3854	8414.575
3065.7759	8363.475
3068.16494	8361.175
3070.55254	8312.975
3072.93868	8294.975
3075.32338	8292.775
3077.70662	8241.375
3080.08842	8227.675
3082.46878	8225.675
3084.84769	8206.675
3087.22515	8193.175
3089.60118	8185.475
3091.97576	8213.475
3094.3489	8182.975
3096.72061	8186.475
3099.09087	8186.075
3101.4597	8154.775
3103.82709	8160.275
3106.19305	8160.475
3108.55757	8146.375
3110.92066	8095.375
3113.28232	8097.075
3115.64255	8050.575
3118.00134	8035.475
3120.35871	8019.575
3122.71466	8009.675
3125.06917	7983.375
3127.42226	8006.975
3129.77393	7987.775
3132.12417	7973.275
3134.47299	7984.375
3136.82039	7972.975
3139.16636	7954.875
3141.51092	7953.675
3143.85406	7962.375
3146.19579	7952.675
3148.53609	7958.175
3150.87499	7979.475
3153.21246	7973.575
3155.54853	7980.575
3157.88318	7957.075
3160.21642	7966.575
3162.54826	7951.675
3164.87868	7953.875
3167.2077	7948.775
3169.5353	7956.075
3171.86151	7959.875
3174.18631	7962.775
3176.5097	7970.275
3178.83169	7933.775
3181.15228	7946.575
3183.47147	7923.175
3185.78926	7921.975
3188.10565	7929.475
3190.42065	7907.575
3192.73424	7915.075
3195.04645	7913.175
3197.35725	7905.275
3199.66667	7917.875
3201.97469	7905.475
3204.28132	7875.875
3206.58656	7903.275
3208.8904	7905.975
3211.19287	7914.075
3213.49394	7892.675
3215.79363	7889.375
3218.09193	7894.275
3220.38884	7903.075
3222.68438	7906.175
3224.97853	7880.475
3227.2713	7876.475
3229.56269	7880.075
3231.8527	7873.375
3234.14133	7852.075
3236.42858	7838.475
3238.71446	7835.075
3240.99896	7851.275
3243.28209	7822.675
3245.56384	7815.175
3247.84423	7831.375
3250.12324	7799.075
3252.40088	7797.375
3254.67715	7772.075
3256.95205	7761.675
3259.22558	7752.175
3261.49775	7765.375
3263.76855	7711.675
3266.03799	7704.375
3268.30606	7686.875
3270.57277	7657.975
3272.83812	7659.275
3275.10211	7628.175
3277.36474	7617.775
3279.62601	7630.475
3281.88593	7628.875
3284.14448	7638.975
3286.40168	7624.575
3288.65753	7620.275
3290.91202	7603.675
3293.16516	7581.975
3295.41695	7551.475
3297.66738	7497.675
3299.91647	7477.575
3302.16421	7400.375
3304.4106	7393.575
3306.65564	7357.475
3308.89933	7307.075
3311.14169	7274.575
3313.38269	7225.675
3315.62236	7190.875
3317.86068	7117.075
3320.09766	7021.975
3322.3333	6975.175
3324.5676	6973.175
3326.80056	6880.375
3329.03219	6834.875
3331.26248	2.575
3333.49143	0.275
3335.71905	-0.325
