Data from AgNPs_FTO_APTES_UA_2uM_CRN_5uM_R6G_10uM_NaF_0.1M_Addition_RamanShift__21__13-02-55-118.txt Node

Date: Wed Feb 02 13:02:55 GMT 2022
User: TCL
Spectrometer: QEP01345
Trigger mode: 4
Integration Time (sec): 7.000000E0
Scans to average: 10
Electric dark correction enabled: true
Nonlinearity correction enabled: false
Boxcar width: 0
XAxis mode: Raman Shifts
Number of Pixels in Spectrum: 1044
>>>>>Begin Spectral Data<<<<<
46.04893	0.225
50.45542	-0.475
54.85868	-1.175
59.25871	-0.475
63.6555	88.025
68.04907	93.125
72.43941	91.925
76.82654	103.725
81.21044	102.025
85.59113	107.025
89.96862	108.425
94.34289	111.425
98.71396	117.525
103.08183	122.625
107.4465	125.525
111.80798	133.325
116.16626	137.125
120.52136	139.325
124.87327	144.725
129.222	157.125
133.56755	172.625
137.90993	184.625
142.24913	207.825
146.58517	237.325
150.91804	277.625
155.24774	338.525
159.57429	425.925
163.89768	554.725
168.21792	739.325
172.53501	1017.025
176.84895	1432.425
181.15975	2018.425
185.46741	2829.925
189.77193	3882.325
194.07331	5199.125
198.37157	6688.825
202.6667	8232.225
206.9587	9784.025
211.24758	11305.825
215.53334	12829.625
219.81599	14521.425
224.09553	16408.725
228.37195	18469.325
232.64527	20759.425
236.91549	23118.325
241.18261	25402.025
245.44663	27472.225
249.70755	29309.925
253.96539	30920.925
258.22014	32364.625
262.4718	33615.425
266.72039	34567.725
270.96589	35072.925
275.20832	35294.025
279.44768	35211.625
283.68397	35095.325
287.91719	34993.825
292.14735	35055.525
296.37445	35235.125
300.59849	35498.525
304.81948	35650.425
309.03742	35600.425
313.25231	35045.125
317.46415	33900.025
321.67296	32457.425
325.87872	31204.925
330.08145	30661.325
334.28114	30539.925
338.47781	30829.625
342.67145	31285.525
346.86207	31968.725
351.04966	32868.325
355.23424	33836.525
359.4158	34598.425
363.59435	35067.125
367.76989	35308.225
371.94243	35526.525
376.11196	35587.525
380.27849	35714.225
384.44203	35774.025
388.60257	35933.825
392.76012	36163.825
396.91468	36661.125
401.06626	37347.725
405.21485	37854.425
409.36047	37600.425
413.50311	36780.725
417.64277	36017.125
421.77947	35804.825
425.9132	35858.825
430.04396	36132.025
434.17176	36287.325
438.2966	36637.525
442.41849	37256.225
446.53742	38278.025
450.6534	39448.525
454.76644	40359.325
458.87653	40752.125
462.98368	40682.725
467.08789	40204.325
471.18916	39571.325
475.2875	38976.425
479.38291	38686.025
483.4754	38442.425
487.56496	37876.025
491.6516	37224.525
495.73531	36712.125
499.81612	36450.925
503.89401	36570.325
507.96899	36662.225
512.04106	36656.625
516.11023	36457.825
520.1765	36196.925
524.23987	35780.525
528.30034	35308.425
532.35792	34830.025
536.41261	34348.125
540.46441	33885.725
544.51333	33931.725
548.55936	34446.925
552.60252	35416.725
556.64279	36416.525
560.6802	36997.925
564.71473	37398.725
568.7464	38080.225
572.7752	39059.025
576.80114	39552.325
580.82422	39837.625
584.84444	40147.425
588.86181	40313.125
592.87633	40623.125
596.888	41042.425
600.89682	41522.125
604.9028	43603.825
608.90594	48966.825
612.90624	54704.025
616.90371	51232.025
620.89834	41051.825
624.89015	36532.425
628.87913	35924.925
632.86528	36037.225
636.84862	35824.925
640.82913	35110.725
644.80683	33850.425
648.78172	33032.125
652.75379	32832.325
656.72306	33411.025
660.68952	34262.425
664.65319	34154.325
668.61405	33358.825
672.57211	33002.525
676.52738	33018.725
680.47986	32986.825
684.42955	32833.525
688.37646	32786.425
692.32058	32923.525
696.26192	33275.825
700.20048	33710.125
704.13626	34025.325
708.06928	33911.825
711.99952	33575.825
715.927	33430.825
719.85171	33433.025
723.77365	33298.825
727.69284	32871.425
731.60928	32523.325
735.52295	32432.025
739.43388	32528.725
743.34206	32687.825
747.24749	32918.025
751.15017	33323.525
755.05012	34075.425
758.94733	35407.825
762.8418	37812.725
766.73354	41555.125
770.62254	45250.025
774.50882	46166.225
778.39237	43541.325
782.27321	39330.725
786.15132	35952.125
790.02671	33980.725
793.89938	33012.225
797.76935	32629.525
801.6366	32549.925
805.50115	32441.625
809.36299	32188.025
813.22213	31959.725
817.07857	31825.425
820.93231	31815.825
824.78336	31753.525
828.63172	31630.625
832.47738	31620.725
836.32036	31716.425
840.16066	31802.625
843.99827	31887.425
847.8332	31749.025
851.66546	31580.925
855.49504	31486.425
859.32195	31426.925
863.1462	31243.125
866.96777	31044.425
870.78668	30978.125
874.60293	30961.125
878.41652	30945.025
882.22745	31135.425
886.03573	31275.725
889.84136	31202.125
893.64433	31099.225
897.44466	30902.125
901.24235	30794.725
905.0374	30668.625
908.8298	30669.925
912.61957	30756.925
916.40671	31107.525
920.19121	31600.425
923.97308	32057.225
927.75233	32265.725
931.52895	32144.225
935.30295	31717.125
939.07433	30948.725
942.84309	30319.425
946.60924	30057.025
950.37278	29894.825
954.13371	29731.825
957.89203	29562.125
961.64774	29522.525
965.40086	29476.325
969.15137	29313.825
972.89929	29177.825
976.64461	29100.125
980.38733	29136.525
984.12747	29259.825
987.86502	29569.225
991.59999	30031.225
995.33237	30759.825
999.06217	31956.325
1002.78939	33309.825
1006.51404	34270.125
1010.23611	34787.425
1013.95561	35100.925
1017.67255	35040.425
1021.38692	34611.825
1025.09872	34226.625
1028.80796	34581.725
1032.51465	35691.925
1036.21877	36886.725
1039.92035	37078.025
1043.61937	36386.525
1047.31584	35242.725
1051.00976	33997.225
1054.70114	33340.525
1058.38998	33161.325
1062.07627	33354.425
1065.76003	33563.925
1069.44126	33821.525
1073.11995	34259.225
1076.79611	34575.225
1080.46974	34836.425
1084.14085	35195.425
1087.80943	35746.125
1091.47549	36064.725
1095.13903	35916.025
1098.80005	35272.625
1102.45857	34389.625
1106.11456	33782.525
1109.76805	33622.825
1113.41903	33782.625
1117.06751	34163.525
1120.71348	34714.025
1124.35696	35254.325
1127.99793	35847.725
1131.63641	36088.825
1135.2724	35721.325
1138.90589	35210.625
1142.5369	34952.725
1146.16542	34827.025
1149.79145	34947.225
1153.415	35262.725
1157.03607	35874.825
1160.65467	36880.925
1164.27079	38462.525
1167.88443	40768.725
1171.49561	43805.625
1175.10432	47976.925
1178.71056	53355.525
1182.31434	58169.125
1185.91565	60956.825
1189.51451	61249.125
1193.11091	59285.625
1196.70485	56098.925
1200.29634	52763.525
1203.88538	50258.725
1207.47197	48132.325
1211.05612	46581.425
1214.63782	45599.225
1218.21708	45017.825
1221.79391	44855.425
1225.36829	44716.325
1228.94024	44481.025
1232.50976	43978.625
1236.07685	43537.125
1239.6415	43274.125
1243.20374	43029.325
1246.76355	43086.525
1250.32093	43654.425
1253.8759	44730.625
1257.42845	46292.825
1260.97859	47866.425
1264.52631	49258.525
1268.07163	50792.225
1271.61453	52431.425
1275.15503	54289.125
1278.69312	56074.825
1282.22882	57623.025
1285.76211	59098.025
1289.29301	60670.425
1292.82151	62608.425
1296.34761	65038.925
1299.87133	68391.925
1303.39266	72791.025
1306.9116	78301.625
1310.42815	83973.425
1313.94233	87866.225
1317.45412	88667.825
1320.96354	87312.425
1324.47058	85115.325
1327.97525	82850.825
1331.47754	81303.325
1334.97747	80701.325
1338.47502	80718.525
1341.97022	80769.825
1345.46305	79985.625
1348.95352	78377.625
1352.44163	76996.525
1355.92738	77621.325
1359.41078	81193.625
1362.89183	85051.125
1366.37053	83563.425
1369.84688	75995.225
1373.32088	67391.325
1376.79254	61463.625
1380.26186	58949.025
1383.72883	58358.825
1387.19347	58024.525
1390.65578	57384.425
1394.11575	57367.525
1397.57339	58178.725
1401.0287	59578.925
1404.48168	61153.825
1407.93234	62018.025
1411.38068	61792.025
1414.82669	60349.725
1418.27039	57883.425
1421.71177	55065.225
1425.15083	52738.625
1428.58758	51466.625
1432.02203	51090.425
1435.45416	51822.225
1438.88399	52897.725
1442.31151	54014.025
1445.73673	54971.525
1449.15965	55896.625
1452.58027	56616.625
1455.9986	56885.525
1459.41463	57413.725
1462.82837	58335.225
1466.23982	59516.325
1469.64898	60540.225
1473.05586	61190.425
1476.46045	61227.525
1479.86276	60883.625
1483.26279	60452.725
1486.66054	60259.825
1490.05602	60566.325
1493.44922	61207.125
1496.84016	61864.125
1500.22882	63101.825
1503.61521	65019.625
1506.99934	67836.625
1510.38121	70784.325
1513.76081	72250.925
1517.13816	70936.425
1520.51324	67601.225
1523.88607	64056.225
1527.25665	61566.225
1530.62498	60178.725
1533.99105	59353.825
1537.35488	58789.825
1540.71647	58139.825
1544.07581	57363.525
1547.4329	56386.025
1550.78776	55516.725
1554.14038	54977.825
1557.49077	54857.725
1560.83892	54936.225
1564.18484	54977.725
1567.52853	54935.625
1570.86999	54942.325
1574.20922	55286.225
1577.54624	55849.325
1580.88103	55847.625
1584.2136	56042.125
1587.54395	57453.525
1590.87208	60407.725
1594.19801	64341.625
1597.52172	68232.525
1600.84321	69471.825
1604.16251	66471.125
1607.47959	61132.525
1610.79447	55485.225
1614.10715	50307.525
1617.41763	46066.225
1620.7259	43118.625
1624.03199	41645.925
1627.33587	41636.825
1630.63757	43019.825
1633.93707	45933.325
1637.23439	50407.125
1640.52951	56224.425
1643.82246	62269.425
1647.11321	66659.625
1650.40179	67414.325
1653.68819	63239.825
1656.97241	55318.625
1660.25446	46999.525
1663.53433	40718.725
1666.81203	36531.825
1670.08756	33957.725
1673.36092	32303.125
1676.63211	31221.025
1679.90115	30473.925
1683.16801	29888.725
1686.43272	29503.925
1689.69527	29224.225
1692.95567	28967.225
1696.2139	28830.925
1699.46999	28700.325
1702.72392	28527.625
1705.97571	28452.525
1709.22535	28340.725
1712.47284	28326.525
1715.71819	28295.725
1718.96139	28220.925
1722.20246	28084.625
1725.44139	27993.625
1728.67818	27823.225
1731.91284	27630.025
1735.14537	27478.225
1738.37576	27414.325
1741.60403	27272.825
1744.83017	27189.625
1748.05418	27130.425
1751.27607	27106.525
1754.49584	27020.525
1757.71349	26974.525
1760.92903	26974.825
1764.14244	26931.225
1767.35375	26877.225
1770.56294	26850.625
1773.77002	26783.725
1776.97499	26749.525
1780.17785	26683.825
1783.37861	26633.025
1786.57727	26601.325
1789.77382	26589.625
1792.96828	26483.025
1796.16064	26452.725
1799.3509	26430.325
1802.53907	26335.425
1805.72514	26312.325
1808.90913	26266.225
1812.09102	26256.125
1815.27083	26214.825
1818.44856	26130.025
1821.6242	26138.925
1824.79776	26117.425
1827.96924	26133.225
1831.13864	26134.625
1834.30597	26144.525
1837.47122	26112.625
1840.6344	26119.325
1843.7955	26134.625
1846.95454	26167.125
1850.11151	26200.225
1853.26642	26216.825
1856.41926	26219.025
1859.57004	26233.925
1862.71876	26253.225
1865.86542	26288.425
1869.01003	26282.525
1872.15258	26321.525
1875.29308	26338.025
1878.43152	26341.325
1881.56792	26335.925
1884.70227	26376.625
1887.83457	26405.325
1890.96482	26479.425
1894.09304	26455.325
1897.21921	26527.025
1900.34335	26517.625
1903.46544	26513.925
1906.58551	26475.825
1909.70353	26498.325
1912.81953	26416.225
1915.93349	26396.625
1919.04543	26309.825
1922.15534	26268.925
1925.26322	26176.625
1928.36908	26041.425
1931.47292	25939.025
1934.57473	25813.825
1937.67453	25645.025
1940.77232	25531.725
1943.86808	25407.725
1946.96184	25274.325
1950.05358	25185.025
1953.14331	25047.225
1956.23103	24955.225
1959.31675	24882.125
1962.40046	24787.925
1965.48217	24729.625
1968.56188	24620.625
1971.63959	24546.325
1974.7153	24468.225
1977.78901	24409.825
1980.86073	24331.725
1983.93046	24230.225
1986.99819	24134.625
1990.06394	24054.525
1993.1277	23972.025
1996.18947	23870.025
1999.24925	23846.125
2002.30706	23796.125
2005.36288	23739.025
2008.41672	23641.625
2011.46859	23565.025
2014.51848	23531.325
2017.56639	23493.525
2020.61233	23443.225
2023.6563	23356.625
2026.6983	23391.625
2029.73833	23314.425
2032.7764	23283.725
2035.8125	23214.025
2038.84664	23181.625
2041.87881	23173.825
2044.90903	23156.325
2047.93729	23085.625
2050.96359	23099.725
2053.98794	23018.725
2057.01034	23013.325
2060.03078	22971.825
2063.04927	22942.525
2066.06582	22986.225
2069.08042	22924.825
2072.09307	22865.325
2075.10378	22894.725
2078.11255	22881.025
2081.11938	22859.825
2084.12426	22860.625
2087.12722	22833.125
2090.12824	22818.325
2093.12732	22798.625
2096.12447	22807.425
2099.11969	22767.325
2102.11299	22798.025
2105.10435	22846.125
2108.09379	22823.525
2111.08131	22809.725
2114.0669	22795.425
2117.05057	22825.525
2120.03233	22836.025
2123.01216	22856.125
2125.99008	22838.525
2128.96609	22861.525
2131.94018	22879.425
2134.91236	22914.525
2137.88263	22906.225
2140.851	22869.125
2143.81746	22887.425
2146.78201	22940.225
2149.74466	22913.225
2152.7054	22901.625
2155.66425	22948.725
2158.6212	22930.225
2161.57625	22966.225
2164.52941	22935.525
2167.48067	22912.625
2170.43004	22888.425
2173.37752	22897.025
2176.32311	22897.725
2179.26681	22900.525
2182.20863	22896.625
2185.14856	22967.525
2188.08661	22947.525
2191.02278	22977.325
2193.95707	22937.525
2196.88948	22917.725
2199.82001	22911.825
2202.74867	22911.825
2205.67545	22942.725
2208.60037	22885.625
2211.52341	22855.225
2214.44458	22874.325
2217.36388	22855.325
2220.28132	22800.725
2223.1969	22784.925
2226.11061	22793.825
2229.02246	22741.725
2231.93245	22702.325
2234.84058	22700.025
2237.74686	22604.325
2240.65128	22593.925
2243.55385	22496.025
2246.45456	22500.225
2249.35343	22435.025
2252.25044	22422.825
2255.14561	22383.725
2258.03893	22371.525
2260.93041	22297.925
2263.82004	22235.125
2266.70783	22153.225
2269.59378	22109.625
2272.4779	22070.725
2275.36017	22008.725
2278.24061	21983.425
2281.11922	21931.925
2283.996	21908.625
2286.87094	21911.825
2289.74405	21874.225
2292.61534	21852.225
2295.4848	21836.325
2298.35243	21874.825
2301.21824	21844.525
2304.08223	21821.625
2306.94439	21906.425
2309.80474	21953.025
2312.66327	21933.725
2315.51999	21933.725
2318.37489	21936.825
2321.22797	21920.225
2324.07925	21914.225
2326.92871	21914.225
2329.77637	21892.925
2332.62222	21885.025
2335.46626	21861.525
2338.3085	21858.925
2341.14893	21919.725
2343.98756	21916.625
2346.8244	21940.625
2349.65943	21942.425
2352.49267	21964.225
2355.32411	21970.425
2358.15376	21993.225
2360.98161	21950.725
2363.80768	21979.825
2366.63195	21892.925
2369.45444	21826.225
2372.27514	21802.925
2375.09405	21678.925
2377.91118	21643.025
2380.72652	21608.525
2383.54009	21535.125
2386.35187	21523.125
2389.16188	21454.925
2391.97011	21477.425
2394.77657	21452.725
2397.58125	21433.425
2400.38416	21375.125
2403.18529	21305.425
2405.98466	21262.325
2408.78226	21254.525
2411.57809	21229.425
2414.37216	21189.025
2417.16446	21163.625
2419.955	21119.325
2422.74378	21136.125
2425.5308	21081.425
2428.31606	21089.525
2431.09956	21104.325
2433.88131	21063.825
2436.6613	21080.925
2439.43954	21020.825
2442.21603	21051.625
2444.99077	21012.725
2447.76377	21020.525
2450.53501	21032.125
2453.30451	21041.325
2456.07226	21025.725
2458.83827	21022.925
2461.60254	20996.125
2464.36507	21024.025
2467.12586	21010.525
2469.88492	21019.525
2472.64224	21020.825
2475.39782	21074.125
2478.15167	21076.325
2480.90379	21046.025
2483.65417	21091.625
2486.40283	21089.325
2489.14976	21135.225
2491.89497	21149.725
2494.63845	21191.025
2497.3802	21190.525
2500.12024	21153.725
2502.85855	21155.025
2505.59514	21173.525
2508.33002	21163.625
2511.06318	21122.925
2513.79462	21139.825
2516.52435	21095.025
2519.25237	21046.725
2521.97867	21038.225
2524.70327	21013.325
2527.42616	21003.725
2530.14734	21026.725
2532.86681	20927.525
2535.58458	21017.625
2538.30065	20963.925
2541.01501	20995.225
2543.72768	20948.625
2546.43864	20952.425
2549.14791	20927.325
2551.85548	20928.625
2554.56136	20910.625
2557.26554	20899.525
2559.96803	20856.925
2562.66883	20844.225
2565.36794	20829.025
2568.06536	20833.925
2570.7611	20804.225
2573.45514	20802.125
2576.14751	20814.025
2578.83819	20751.025
2581.52719	20786.925
2584.21451	20794.925
2586.90015	20770.125
2589.58411	20779.025
2592.2664	20774.325
2594.94701	20771.825
2597.62594	20754.325
2600.30321	20765.025
2602.9788	20764.025
2605.65273	20733.625
2608.32498	20727.825
2610.99557	20752.925
2613.66449	20765.925
2616.33175	20767.825
2618.99734	20823.525
2621.66128	20850.825
2624.32355	20824.125
2626.98416	20860.825
2629.64311	20834.725
2632.30041	20833.825
2634.95605	20838.325
2637.61004	20834.825
2640.26238	20776.025
2642.91306	20751.525
2645.56209	20742.325
2648.20948	20758.625
2650.85521	20721.125
2653.4993	20702.025
2656.14175	20685.125
2658.78255	20683.225
2661.42171	20671.925
2664.05923	20721.425
2666.6951	20755.125
2669.32934	20729.425
2671.96194	20781.925
2674.59291	20783.525
2677.22224	20772.825
2679.84993	20778.625
2682.476	20707.325
2685.10043	20735.025
2687.72324	20664.525
2690.34441	20691.925
2692.96396	20727.025
2695.58188	20734.225
2698.19818	20699.225
2700.81285	20702.825
2703.4259	20656.725
2706.03733	20720.425
2708.64714	20704.325
2711.25533	20732.125
2713.86191	20697.225
2716.46687	20754.825
2719.07021	20723.625
2721.67194	20765.525
2724.27206	20719.325
2726.87057	20745.425
2729.46747	20755.425
2732.06276	20779.725
2734.65644	20755.025
2737.24852	20777.825
2739.83899	20791.325
2742.42786	20786.825
2745.01513	20732.925
2747.60079	20735.325
2750.18486	20725.825
2752.76733	20761.625
2755.3482	20736.825
2757.92747	20682.725
2760.50515	20713.425
2763.08123	20706.025
2765.65573	20672.925
2768.22863	20688.525
2770.79994	20656.525
2773.36967	20635.625
2775.9378	20673.225
2778.50435	20697.525
2781.06932	20675.025
2783.6327	20654.025
2786.1945	20634.525
2788.75471	20640.425
2791.31335	20575.425
2793.87041	20517.425
2796.42589	20523.825
2798.97979	20545.025
2801.53212	20537.525
2804.08288	20496.025
2806.63206	20462.025
2809.17967	20385.925
2811.72571	20357.525
2814.27018	20366.625
2816.81308	20315.225
2819.35442	20312.525
2821.89419	20259.725
2824.43239	20297.425
2826.96904	20259.325
2829.50412	20257.825
2832.03763	20218.525
2834.56959	20294.025
2837.1	20185.125
2839.62884	20209.325
2842.15613	20186.625
2844.68186	20242.625
2847.20604	20242.925
2849.72867	20247.525
2852.24974	20228.925
2854.76927	20198.225
2857.28724	20198.625
2859.80367	20172.225
2862.31855	20132.125
2864.83189	20135.925
2867.34368	20118.325
2869.85393	20147.025
2872.36264	20124.825
2874.8698	20138.925
2877.37543	20132.525
2879.87952	20103.625
2882.38207	20127.825
2884.88308	20085.825
2887.38256	20124.525
2889.88051	20102.025
2892.37692	20173.025
2894.8718	20147.525
2897.36515	20204.225
2899.85698	20203.825
2902.34727	20192.525
2904.83604	20210.925
2907.32328	20282.425
2909.809	20258.625
2912.29319	20257.125
2914.77587	20270.425
2917.25702	20258.225
2919.73665	20247.725
2922.21476	20253.925
2924.69136	20240.425
2927.16644	20216.125
2929.64	20209.425
2932.11205	20146.125
2934.58258	20093.725
2937.05161	20075.625
2939.51912	20099.025
2941.98513	20068.225
2944.44962	20005.625
2946.91261	19964.925
2949.37409	19976.025
2951.83407	19950.625
2954.29254	19962.925
2956.74951	19894.625
2959.20498	19928.225
2961.65895	19849.225
2964.11142	19837.125
2966.56239	19777.825
2969.01186	19770.025
2971.45984	19727.525
2973.90632	19657.725
2976.35131	19649.225
2978.7948	19596.925
2981.23681	19527.925
2983.67732	19508.925
2986.11635	19381.425
2988.55388	19349.225
2990.98993	19319.225
2993.4245	19256.025
2995.85758	19224.525
2998.28917	19161.125
3000.71928	19143.725
3003.14791	19148.125
3005.57506	19107.825
3008.00073	19069.225
3010.42493	19076.125
3012.84764	18995.325
3015.26888	18988.225
3017.68865	18924.025
3020.10694	18896.025
3022.52376	18877.625
3024.9391	18849.825
3027.35298	18811.625
3029.76539	18788.025
3032.17632	18803.725
3034.5858	18731.625
3036.9938	18727.125
3039.40034	18695.225
3041.80542	18718.125
3044.20903	18682.425
3046.61118	18620.125
3049.01187	18612.925
3051.4111	18587.525
3053.80888	18540.925
3056.20519	18490.525
3058.60005	18433.725
3060.99345	18411.225
3063.3854	18342.925
3065.7759	18289.725
3068.16494	18241.925
3070.55254	18166.625
3072.93868	18171.825
3075.32338	18099.325
3077.70662	18063.225
3080.08842	17983.025
3082.46878	17992.125
3084.84769	17945.225
3087.22515	17927.925
3089.60118	17932.225
3091.97576	17904.625
3094.3489	17902.525
3096.72061	17863.125
3099.09087	17859.525
3101.4597	17808.625
3103.82709	17778.425
3106.19305	17732.925
3108.55757	17730.825
3110.92066	17675.925
3113.28232	17674.125
3115.64255	17604.225
3118.00134	17557.525
3120.35871	17521.125
3122.71466	17472.625
3125.06917	17477.125
3127.42226	17413.125
3129.77393	17437.925
3132.12417	17424.925
3134.47299	17414.625
3136.82039	17372.125
3139.16636	17369.725
3141.51092	17357.225
3143.85406	17395.625
3146.19579	17358.925
3148.53609	17354.125
3150.87499	17333.925
3153.21246	17392.225
3155.54853	17396.525
3157.88318	17313.425
3160.21642	17339.325
3162.54826	17309.325
3164.87868	17329.825
3167.2077	17309.825
3169.5353	17234.625
3171.86151	17260.625
3174.18631	17247.525
3176.5097	17236.925
3178.83169	17194.225
3181.15228	17211.125
3183.47147	17153.025
3185.78926	17149.325
3188.10565	17120.225
3190.42065	17160.625
3192.73424	17208.925
3195.04645	17160.125
3197.35725	17176.025
3199.66667	17166.225
3201.97469	17157.325
3204.28132	17115.725
3206.58656	17131.025
3208.8904	17123.625
3211.19287	17167.725
3213.49394	17177.625
3215.79363	17165.825
3218.09193	17155.325
3220.38884	17121.825
3222.68438	17149.525
3224.97853	17100.725
3227.2713	17090.525
3229.56269	17097.725
3231.8527	17073.025
3234.14133	17028.925
3236.42858	17006.825
3238.71446	17008.725
3240.99896	16977.925
3243.28209	16962.225
3245.56384	16901.225
3247.84423	16902.825
3250.12324	16860.725
3252.40088	16835.925
3254.67715	16811.325
3256.95205	16748.825
3259.22558	16767.625
3261.49775	16731.825
3263.76855	16720.725
3266.03799	16677.825
3268.30606	16687.625
3270.57277	16650.125
3272.83812	16645.225
3275.10211	16617.025
3277.36474	16581.925
3279.62601	16610.925
3281.88593	16590.525
3284.14448	16614.525
3286.40168	16614.225
3288.65753	16601.325
3290.91202	16534.525
3293.16516	16482.725
3295.41695	16428.425
3297.66738	16377.225
3299.91647	16320.425
3302.16421	16205.325
3304.4106	16140.725
3306.65564	16022.025
3308.89933	15922.625
3311.14169	15783.325
3313.38269	15692.025
3315.62236	15594.025
3317.86068	15446.625
3320.09766	15332.225
3322.3333	15180.325
3324.5676	15192.325
3326.80056	14955.325
3329.03219	14870.425
3331.26248	2.925
3333.49143	0.725
3335.71905	-1.375
