Data from AgNPs_FTO_APTES_UA_2uM_CRN_20uM_R6G_10uM_NaF_0.1M_Addition_RamanShift__29__14-31-35-222.txt Node

Date: Wed Feb 02 14:31:35 GMT 2022
User: TCL
Spectrometer: QEP01345
Trigger mode: 4
Integration Time (sec): 7.000000E0
Scans to average: 10
Electric dark correction enabled: true
Nonlinearity correction enabled: false
Boxcar width: 0
XAxis mode: Raman Shifts
Number of Pixels in Spectrum: 1044
>>>>>Begin Spectral Data<<<<<
46.04893	0.325
50.45542	-0.275
54.85868	0.325
59.25871	-0.775
63.6555	57.825
68.04907	61.725
72.43941	64.125
76.82654	72.625
81.21044	72.525
85.59113	80.925
89.96862	85.425
94.34289	89.425
98.71396	89.325
103.08183	92.325
107.4465	92.425
111.80798	96.025
116.16626	96.325
120.52136	99.925
124.87327	99.425
129.222	101.425
133.56755	106.025
137.90993	111.625
142.24913	124.425
146.58517	133.225
150.91804	147.925
155.24774	175.325
159.57429	210.825
163.89768	260.125
168.21792	337.925
172.53501	455.425
176.84895	621.125
181.15975	859.825
185.46741	1188.725
189.77193	1628.325
194.07331	2175.425
198.37157	2778.125
202.6667	3431.725
206.9587	4084.525
211.24758	4722.025
215.53334	5415.125
219.81599	6173.825
224.09553	7057.025
228.37195	7997.325
232.64527	9059.425
236.91549	10068.225
241.18261	10966.425
245.44663	11735.825
249.70755	12301.825
253.96539	12794.925
258.22014	13243.425
262.4718	13649.225
266.72039	14018.225
270.96589	14216.725
275.20832	14319.425
279.44768	14277.525
283.68397	14201.225
287.91719	14225.425
292.14735	14351.025
296.37445	14662.025
300.59849	15155.825
304.81948	15713.925
309.03742	16200.925
313.25231	16143.425
317.46415	15285.125
321.67296	13976.325
325.87872	12882.525
330.08145	12328.925
334.28114	12227.525
338.47781	12418.125
342.67145	12791.425
346.86207	13333.925
351.04966	14213.525
355.23424	15143.725
359.4158	15841.925
363.59435	16132.225
367.76989	16113.625
371.94243	15961.325
376.11196	15760.925
380.27849	15548.925
384.44203	15344.325
388.60257	15093.425
392.76012	15057.425
396.91468	15234.725
401.06626	15702.825
405.21485	16099.225
409.36047	15834.325
413.50311	14888.525
417.64277	14089.425
421.77947	13604.025
425.9132	13396.925
430.04396	13433.525
434.17176	13460.825
438.2966	13585.725
442.41849	13818.825
446.53742	14206.625
450.6534	14605.825
454.76644	14872.925
458.87653	14891.225
462.98368	14763.325
467.08789	14544.225
471.18916	14250.325
475.2875	13865.325
479.38291	13574.525
483.4754	13346.025
487.56496	13160.425
491.6516	13054.625
495.73531	13023.725
499.81612	13106.425
503.89401	13255.525
507.96899	13431.725
512.04106	13561.725
516.11023	13649.425
520.1765	13726.925
524.23987	13599.625
528.30034	13309.925
532.35792	12957.025
536.41261	12601.525
540.46441	12294.225
544.51333	12195.125
548.55936	12368.925
552.60252	12749.025
556.64279	13223.325
560.6802	13445.725
564.71473	13683.525
568.7464	14326.825
572.7752	14836.325
576.80114	14510.925
580.82422	14091.525
584.84444	13852.725
588.86181	13641.225
592.87633	13525.325
596.888	13590.425
600.89682	14158.525
604.9028	16007.625
608.90594	20828.925
612.90624	27029.325
616.90371	25934.625
620.89834	17533.725
624.89015	13500.625
628.87913	12746.325
632.86528	12850.825
636.84862	13105.525
640.82913	12927.225
644.80683	12265.425
648.78172	11807.525
652.75379	11863.425
656.72306	12477.125
660.68952	13227.325
664.65319	13121.825
668.61405	12376.725
672.57211	12001.525
676.52738	11919.025
680.47986	11913.125
684.42955	11771.625
688.37646	11694.725
692.32058	11754.425
696.26192	11930.825
700.20048	12136.225
704.13626	12319.425
708.06928	12380.425
711.99952	12261.125
715.927	12131.025
719.85171	12131.025
723.77365	12053.325
727.69284	11860.525
731.60928	11692.825
735.52295	11630.425
739.43388	11647.925
743.34206	11712.925
747.24749	11806.725
751.15017	11999.025
755.05012	12323.025
758.94733	13105.725
762.8418	14824.725
766.73354	17753.425
770.62254	20797.025
774.50882	21997.525
778.39237	20659.325
782.27321	17632.125
786.15132	14680.025
790.02671	12962.625
793.89938	12163.925
797.76935	11834.725
801.6366	11651.425
805.50115	11542.425
809.36299	11477.425
813.22213	11362.325
817.07857	11330.025
820.93231	11318.325
824.78336	11367.225
828.63172	11429.225
832.47738	11458.825
836.32036	11416.025
840.16066	11338.525
843.99827	11247.425
847.8332	11204.225
851.66546	11166.725
855.49504	11131.125
859.32195	11103.625
863.1462	11027.725
866.96777	10973.225
870.78668	10945.825
874.60293	10945.625
878.41652	10989.425
882.22745	11044.525
886.03573	11104.925
889.84136	11080.725
893.64433	10976.825
897.44466	10958.725
901.24235	10949.425
905.0374	10945.525
908.8298	10903.625
912.61957	10906.025
916.40671	11044.325
920.19121	11213.525
923.97308	11336.525
927.75233	11434.325
931.52895	11492.125
935.30295	11281.625
939.07433	10826.825
942.84309	10498.425
946.60924	10289.325
950.37278	10182.625
954.13371	10136.025
957.89203	10096.625
961.64774	10050.925
965.40086	10032.025
969.15137	9992.625
972.89929	9953.025
976.64461	9910.425
980.38733	9907.425
984.12747	9913.025
987.86502	9960.425
991.59999	10073.625
995.33237	10159.225
999.06217	10415.625
1002.78939	10757.225
1006.51404	11065.825
1010.23611	11374.525
1013.95561	11572.925
1017.67255	11497.625
1021.38692	11307.525
1025.09872	11050.025
1028.80796	10915.925
1032.51465	10948.525
1036.21877	11117.125
1039.92035	11297.725
1043.61937	11403.925
1047.31584	11374.825
1051.00976	11298.625
1054.70114	11302.225
1058.38998	11320.725
1062.07627	11433.925
1065.76003	11586.725
1069.44126	11755.025
1073.11995	11936.925
1076.79611	12073.025
1080.46974	12242.925
1084.14085	12538.625
1087.80943	12928.225
1091.47549	13147.725
1095.13903	12949.025
1098.80005	12463.425
1102.45857	11911.525
1106.11456	11587.125
1109.76805	11543.125
1113.41903	11751.425
1117.06751	12116.725
1120.71348	12661.325
1124.35696	13316.325
1127.99793	13922.325
1131.63641	13946.825
1135.2724	13217.125
1138.90589	12547.125
1142.5369	12185.425
1146.16542	11941.125
1149.79145	11820.425
1153.415	11878.725
1157.03607	12048.925
1160.65467	12381.925
1164.27079	12947.425
1167.88443	13756.925
1171.49561	15094.025
1175.10432	17297.025
1178.71056	20071.125
1182.31434	21968.525
1185.91565	22358.625
1189.51451	21744.325
1193.11091	20447.825
1196.70485	18827.125
1200.29634	17476.925
1203.88538	16475.425
1207.47197	15305.425
1211.05612	14287.525
1214.63782	13763.925
1218.21708	13576.125
1221.79391	13599.425
1225.36829	13720.525
1228.94024	13900.425
1232.50976	14105.525
1236.07685	14170.425
1239.6415	14165.625
1243.20374	14089.525
1246.76355	14122.625
1250.32093	14302.425
1253.8759	14601.025
1257.42845	15111.425
1260.97859	15679.425
1264.52631	16205.225
1268.07163	16763.125
1271.61453	17347.125
1275.15503	17745.525
1278.69312	17953.025
1282.22882	18111.825
1285.76211	18554.125
1289.29301	19206.725
1292.82151	19833.325
1296.34761	20481.225
1299.87133	21490.525
1303.39266	23097.025
1306.9116	25738.425
1310.42815	28929.125
1313.94233	31134.425
1317.45412	31130.225
1320.96354	29472.725
1324.47058	27354.925
1327.97525	25521.225
1331.47754	24309.025
1334.97747	23803.525
1338.47502	23730.225
1341.97022	24002.525
1345.46305	24513.625
1348.95352	25397.725
1352.44163	26807.425
1355.92738	29111.025
1359.41078	33033.925
1362.89183	37186.525
1366.37053	36679.825
1369.84688	31383.325
1373.32088	25788.825
1376.79254	22218.025
1380.26186	20455.425
1383.72883	19545.225
1387.19347	18788.525
1390.65578	18047.625
1394.11575	17471.725
1397.57339	17173.725
1401.0287	17215.125
1404.48168	17475.625
1407.93234	17742.825
1411.38068	17868.925
1414.82669	17723.125
1418.27039	17299.225
1421.71177	16764.425
1425.15083	16257.825
1428.58758	15881.125
1432.02203	15762.325
1435.45416	15844.725
1438.88399	15932.525
1442.31151	15972.325
1445.73673	16114.425
1449.15965	16289.825
1452.58027	16283.125
1455.9986	16243.925
1459.41463	16245.625
1462.82837	16419.725
1466.23982	16803.425
1469.64898	17247.525
1473.05586	17568.625
1476.46045	17788.325
1479.86276	18079.925
1483.26279	18519.225
1486.66054	19031.725
1490.05602	19683.225
1493.44922	20634.025
1496.84016	22082.925
1500.22882	24281.225
1503.61521	27143.125
1506.99934	30372.025
1510.38121	33652.525
1513.76081	35564.125
1517.13816	34464.325
1520.51324	30663.325
1523.88607	26507.825
1527.25665	23504.725
1530.62498	21703.725
1533.99105	20555.525
1537.35488	19785.625
1540.71647	19228.525
1544.07581	18822.225
1547.4329	18560.725
1550.78776	18311.825
1554.14038	18216.925
1557.49077	18382.925
1560.83892	18852.325
1564.18484	19458.725
1567.52853	20116.225
1570.86999	20553.225
1574.20922	20813.125
1577.54624	20606.625
1580.88103	19592.825
1584.2136	18269.125
1587.54395	17643.825
1590.87208	17980.025
1594.19801	19028.325
1597.52172	20344.725
1600.84321	20811.025
1604.16251	19880.625
1607.47959	18399.325
1610.79447	16862.125
1614.10715	15479.525
1617.41763	14305.025
1620.7259	13552.625
1624.03199	13175.925
1627.33587	13151.525
1630.63757	13472.825
1633.93707	14238.925
1637.23439	15444.825
1640.52951	17153.925
1643.82246	19324.025
1647.11321	21805.225
1650.40179	23734.725
1653.68819	23441.125
1656.97241	20523.925
1660.25446	16812.125
1663.53433	13990.825
1666.81203	12295.425
1670.08756	11272.025
1673.36092	10675.825
1676.63211	10263.125
1679.90115	10010.525
1683.16801	9817.025
1686.43272	9648.225
1689.69527	9537.425
1692.95567	9458.925
1696.2139	9416.225
1699.46999	9378.925
1702.72392	9343.525
1705.97571	9298.125
1709.22535	9260.525
1712.47284	9275.125
1715.71819	9250.525
1718.96139	9278.425
1722.20246	9248.325
1725.44139	9197.225
1728.67818	9117.925
1731.91284	9044.325
1735.14537	8921.325
1738.37576	8875.525
1741.60403	8808.025
1744.83017	8783.125
1748.05418	8744.325
1751.27607	8744.325
1754.49584	8703.725
1757.71349	8697.625
1760.92903	8660.025
1764.14244	8656.425
1767.35375	8625.825
1770.56294	8611.425
1773.77002	8573.625
1776.97499	8534.525
1780.17785	8474.025
1783.37861	8452.525
1786.57727	8436.725
1789.77382	8404.325
1792.96828	8394.825
1796.16064	8405.725
1799.3509	8386.625
1802.53907	8365.325
1805.72514	8317.725
1808.90913	8277.825
1812.09102	8253.725
1815.27083	8254.925
1818.44856	8230.925
1821.6242	8198.825
1824.79776	8214.525
1827.96924	8193.225
1831.13864	8165.225
1834.30597	8178.125
1837.47122	8164.125
1840.6344	8166.225
1843.7955	8186.425
1846.95454	8174.725
1850.11151	8146.025
1853.26642	8148.925
1856.41926	8138.525
1859.57004	8160.025
1862.71876	8160.425
1865.86542	8145.325
1869.01003	8154.025
1872.15258	8172.325
1875.29308	8174.025
1878.43152	8181.725
1881.56792	8188.425
1884.70227	8211.025
1887.83457	8240.725
1890.96482	8214.225
1894.09304	8248.925
1897.21921	8236.525
1900.34335	8251.825
1903.46544	8267.825
1906.58551	8275.525
1909.70353	8289.025
1912.81953	8291.925
1915.93349	8304.025
1919.04543	8307.725
1922.15534	8288.325
1925.26322	8258.625
1928.36908	8226.325
1931.47292	8169.725
1934.57473	8093.025
1937.67453	8036.925
1940.77232	7969.325
1943.86808	7911.125
1946.96184	7875.725
1950.05358	7816.725
1953.14331	7779.725
1956.23103	7723.325
1959.31675	7690.525
1962.40046	7653.725
1965.48217	7649.625
1968.56188	7594.625
1971.63959	7580.825
1974.7153	7573.325
1977.78901	7546.125
1980.86073	7505.125
1983.93046	7458.925
1986.99819	7440.925
1990.06394	7421.825
1993.1277	7390.125
1996.18947	7362.725
1999.24925	7337.325
2002.30706	7305.625
2005.36288	7256.225
2008.41672	7272.625
2011.46859	7253.125
2014.51848	7207.025
2017.56639	7211.525
2020.61233	7165.525
2023.6563	7140.625
2026.6983	7122.225
2029.73833	7092.725
2032.7764	7089.825
2035.8125	7070.825
2038.84664	7025.425
2041.87881	7030.325
2044.90903	7015.625
2047.93729	7007.025
2050.96359	7001.425
2053.98794	6984.525
2057.01034	6983.225
2060.03078	6955.725
2063.04927	6940.225
2066.06582	6942.925
2069.08042	6937.225
2072.09307	6931.825
2075.10378	6900.625
2078.11255	6894.825
2081.11938	6905.425
2084.12426	6886.325
2087.12722	6890.425
2090.12824	6899.925
2093.12732	6870.425
2096.12447	6892.325
2099.11969	6893.125
2102.11299	6866.725
2105.10435	6882.225
2108.09379	6886.025
2111.08131	6890.025
2114.0669	6899.625
2117.05057	6902.025
2120.03233	6910.125
2123.01216	6887.925
2125.99008	6900.325
2128.96609	6899.825
2131.94018	6914.725
2134.91236	6918.125
2137.88263	6906.925
2140.851	6904.825
2143.81746	6896.525
2146.78201	6903.325
2149.74466	6904.225
2152.7054	6886.125
2155.66425	6887.425
2158.6212	6874.325
2161.57625	6876.525
2164.52941	6878.325
2167.48067	6880.325
2170.43004	6840.725
2173.37752	6835.925
2176.32311	6839.125
2179.26681	6834.225
2182.20863	6829.125
2185.14856	6851.925
2188.08661	6837.525
2191.02278	6846.825
2193.95707	6807.225
2196.88948	6788.825
2199.82001	6813.425
2202.74867	6808.925
2205.67545	6802.925
2208.60037	6799.325
2211.52341	6763.725
2214.44458	6766.425
2217.36388	6757.125
2220.28132	6720.325
2223.1969	6701.925
2226.11061	6692.225
2229.02246	6670.625
2231.93245	6654.125
2234.84058	6650.325
2237.74686	6629.625
2240.65128	6627.925
2243.55385	6613.225
2246.45456	6610.525
2249.35343	6590.025
2252.25044	6602.825
2255.14561	6591.825
2258.03893	6589.725
2260.93041	6582.125
2263.82004	6566.825
2266.70783	6567.925
2269.59378	6523.525
2272.4779	6511.525
2275.36017	6502.025
2278.24061	6481.325
2281.11922	6478.425
2283.996	6457.425
2286.87094	6449.425
2289.74405	6423.525
2292.61534	6420.225
2295.4848	6403.425
2298.35243	6400.825
2301.21824	6366.025
2304.08223	6380.225
2306.94439	6373.625
2309.80474	6369.125
2312.66327	6377.825
2315.51999	6369.725
2318.37489	6336.425
2321.22797	6340.825
2324.07925	6317.025
2326.92871	6330.725
2329.77637	6337.825
2332.62222	6303.725
2335.46626	6328.025
2338.3085	6303.625
2341.14893	6304.925
2343.98756	6304.325
2346.8244	6289.325
2349.65943	6314.125
2352.49267	6320.025
2355.32411	6323.825
2358.15376	6342.325
2360.98161	6338.025
2363.80768	6342.525
2366.63195	6371.825
2369.45444	6334.925
2372.27514	6358.325
2375.09405	6328.825
2377.91118	6324.625
2380.72652	6294.625
2383.54009	6262.825
2386.35187	6261.125
2389.16188	6203.325
2391.97011	6180.725
2394.77657	6153.725
2397.58125	6138.725
2400.38416	6130.825
2403.18529	6118.525
2405.98466	6102.225
2408.78226	6098.425
2411.57809	6074.125
2414.37216	6072.025
2417.16446	6070.425
2419.955	6070.325
2422.74378	6055.525
2425.5308	6056.325
2428.31606	6033.425
2431.09956	6051.725
2433.88131	6041.925
2436.6613	6042.325
2439.43954	6027.025
2442.21603	6032.525
2444.99077	6019.525
2447.76377	6037.325
2450.53501	6034.525
2453.30451	6035.925
2456.07226	6038.625
2458.83827	6044.025
2461.60254	6034.325
2464.36507	6022.725
2467.12586	6029.725
2469.88492	6018.925
2472.64224	6023.125
2475.39782	6017.325
2478.15167	6039.425
2480.90379	6041.925
2483.65417	6045.325
2486.40283	6059.325
2489.14976	6079.025
2491.89497	6093.925
2494.63845	6089.225
2497.3802	6109.525
2500.12024	6082.225
2502.85855	6082.125
2505.59514	6066.025
2508.33002	6043.925
2511.06318	6012.225
2513.79462	5987.825
2516.52435	5980.225
2519.25237	5960.025
2521.97867	5916.825
2524.70327	5915.725
2527.42616	5903.325
2530.14734	5887.025
2532.86681	5894.725
2535.58458	5886.025
2538.30065	5869.325
2541.01501	5887.525
2543.72768	5846.525
2546.43864	5862.625
2549.14791	5849.825
2551.85548	5854.625
2554.56136	5850.125
2557.26554	5848.025
2559.96803	5841.325
2562.66883	5831.925
2565.36794	5807.125
2568.06536	5817.825
2570.7611	5828.225
2573.45514	5792.225
2576.14751	5782.125
2578.83819	5783.825
2581.52719	5773.425
2584.21451	5757.425
2586.90015	5749.725
2589.58411	5754.725
2592.2664	5740.325
2594.94701	5752.325
2597.62594	5747.825
2600.30321	5728.125
2602.9788	5721.425
2605.65273	5730.725
2608.32498	5725.125
2610.99557	5727.325
2613.66449	5727.125
2616.33175	5712.625
2618.99734	5720.325
2621.66128	5715.925
2624.32355	5714.225
2626.98416	5711.125
2629.64311	5694.125
2632.30041	5702.825
2634.95605	5673.425
2637.61004	5674.625
2640.26238	5667.025
2642.91306	5659.925
2645.56209	5659.525
2648.20948	5650.525
2650.85521	5637.825
2653.4993	5630.325
2656.14175	5636.325
2658.78255	5641.125
2661.42171	5652.525
2664.05923	5654.825
2666.6951	5659.725
2669.32934	5671.425
2671.96194	5679.925
2674.59291	5687.625
2677.22224	5684.825
2679.84993	5686.425
2682.476	5674.425
2685.10043	5683.825
2687.72324	5672.225
2690.34441	5683.425
2692.96396	5671.425
2695.58188	5674.625
2698.19818	5654.725
2700.81285	5672.425
2703.4259	5685.725
2706.03733	5713.225
2708.64714	5700.125
2711.25533	5688.625
2713.86191	5672.025
2716.46687	5702.425
2719.07021	5695.525
2721.67194	5706.625
2724.27206	5688.925
2726.87057	5663.625
2729.46747	5694.525
2732.06276	5697.425
2734.65644	5673.525
2737.24852	5653.825
2739.83899	5663.425
2742.42786	5651.625
2745.01513	5644.925
2747.60079	5628.025
2750.18486	5612.925
2752.76733	5629.425
2755.3482	5620.625
2757.92747	5624.425
2760.50515	5601.625
2763.08123	5606.525
2765.65573	5589.325
2768.22863	5583.025
2770.79994	5573.625
2773.36967	5560.625
2775.9378	5552.225
2778.50435	5572.325
2781.06932	5552.925
2783.6327	5564.325
2786.1945	5562.825
2788.75471	5563.725
2791.31335	5543.325
2793.87041	5575.525
2796.42589	5541.325
2798.97979	5534.325
2801.53212	5536.325
2804.08288	5531.225
2806.63206	5533.425
2809.17967	5525.225
2811.72571	5511.025
2814.27018	5533.625
2816.81308	5533.825
2819.35442	5526.325
2821.89419	5553.625
2824.43239	5563.325
2826.96904	5546.525
2829.50412	5570.525
2832.03763	5556.425
2834.56959	5567.125
2837.1	5574.225
2839.62884	5623.525
2842.15613	5642.625
2844.68186	5718.025
2847.20604	5775.325
2849.72867	5837.625
2852.24974	5878.925
2854.76927	5877.425
2857.28724	5857.925
2859.80367	5836.925
2862.31855	5826.125
2864.83189	5793.225
2867.34368	5768.325
2869.85393	5770.325
2872.36264	5758.525
2874.8698	5750.925
2877.37543	5763.625
2879.87952	5757.925
2882.38207	5747.625
2884.88308	5748.925
2887.38256	5762.225
2889.88051	5746.425
2892.37692	5740.525
2894.8718	5738.125
2897.36515	5747.825
2899.85698	5759.625
2902.34727	5755.825
2904.83604	5756.125
2907.32328	5768.125
2909.809	5760.525
2912.29319	5756.825
2914.77587	5747.725
2917.25702	5754.825
2919.73665	5716.925
2922.21476	5730.825
2924.69136	5726.525
2927.16644	5722.525
2929.64	5711.025
2932.11205	5699.825
2934.58258	5676.825
2937.05161	5658.125
2939.51912	5644.425
2941.98513	5593.525
2944.44962	5548.925
2946.91261	5499.825
2949.37409	5471.425
2951.83407	5453.925
2954.29254	5430.125
2956.74951	5401.225
2959.20498	5403.625
2961.65895	5361.825
2964.11142	5345.425
2966.56239	5340.525
2969.01186	5329.325
2971.45984	5298.825
2973.90632	5271.825
2976.35131	5251.125
2978.7948	5248.525
2981.23681	5215.225
2983.67732	5213.025
2986.11635	5189.825
2988.55388	5165.125
2990.98993	5160.025
2993.4245	5157.825
2995.85758	5140.725
2998.28917	5108.925
3000.71928	5111.425
3003.14791	5085.725
3005.57506	5093.625
3008.00073	5074.825
3010.42493	5081.125
3012.84764	5049.025
3015.26888	5059.125
3017.68865	5044.925
3020.10694	5026.225
3022.52376	5034.925
3024.9391	5034.025
3027.35298	5008.525
3029.76539	4988.225
3032.17632	4988.325
3034.5858	4972.325
3036.9938	4959.425
3039.40034	4964.425
3041.80542	4961.025
3044.20903	4950.725
3046.61118	4930.225
3049.01187	4924.925
3051.4111	4925.225
3053.80888	4917.825
3056.20519	4897.325
3058.60005	4883.825
3060.99345	4865.525
3063.3854	4877.925
3065.7759	4873.925
3068.16494	4841.925
3070.55254	4827.725
3072.93868	4839.625
3075.32338	4808.225
3077.70662	4791.825
3080.08842	4758.325
3082.46878	4753.125
3084.84769	4736.225
3087.22515	4741.325
3089.60118	4740.125
3091.97576	4721.725
3094.3489	4699.225
3096.72061	4697.025
3099.09087	4691.525
3101.4597	4698.025
3103.82709	4688.025
3106.19305	4682.225
3108.55757	4664.325
3110.92066	4658.125
3113.28232	4653.225
3115.64255	4634.625
3118.00134	4639.825
3120.35871	4622.025
3122.71466	4616.225
3125.06917	4604.425
3127.42226	4608.025
3129.77393	4602.025
3132.12417	4593.225
3134.47299	4600.425
3136.82039	4616.425
3139.16636	4614.725
3141.51092	4612.125
3143.85406	4617.025
3146.19579	4637.925
3148.53609	4607.925
3150.87499	4622.825
3153.21246	4632.325
3155.54853	4639.625
3157.88318	4638.225
3160.21642	4633.425
3162.54826	4629.325
3164.87868	4634.025
3167.2077	4630.825
3169.5353	4605.625
3171.86151	4626.325
3174.18631	4623.225
3176.5097	4604.625
3178.83169	4615.125
3181.15228	4612.925
3183.47147	4631.625
3185.78926	4615.425
3188.10565	4629.225
3190.42065	4613.525
3192.73424	4629.325
3195.04645	4609.925
3197.35725	4612.225
3199.66667	4610.925
3201.97469	4633.725
3204.28132	4626.225
3206.58656	4627.925
3208.8904	4624.025
3211.19287	4649.725
3213.49394	4647.225
3215.79363	4649.025
3218.09193	4637.725
3220.38884	4648.525
3222.68438	4660.025
3224.97853	4647.725
3227.2713	4656.825
3229.56269	4637.725
3231.8527	4623.625
3234.14133	4605.925
3236.42858	4607.325
3238.71446	4607.825
3240.99896	4592.125
3243.28209	4588.325
3245.56384	4580.625
3247.84423	4579.525
3250.12324	4557.825
3252.40088	4575.425
3254.67715	4559.125
3256.95205	4551.125
3259.22558	4528.825
3261.49775	4533.025
3263.76855	4538.225
3266.03799	4512.625
3268.30606	4516.625
3270.57277	4498.725
3272.83812	4503.625
3275.10211	4487.125
3277.36474	4507.125
3279.62601	4499.625
3281.88593	4490.525
3284.14448	4475.525
3286.40168	4476.025
3288.65753	4475.425
3290.91202	4455.625
3293.16516	4441.025
3295.41695	4438.125
3297.66738	4417.525
3299.91647	4387.925
3302.16421	4385.525
3304.4106	4346.125
3306.65564	4322.125
3308.89933	4290.025
3311.14169	4269.225
3313.38269	4238.425
3315.62236	4205.925
3317.86068	4160.725
3320.09766	4123.025
3322.3333	4061.325
3324.5676	4068.325
3326.80056	4011.525
3329.03219	3988.025
3331.26248	0.025
3333.49143	-0.375
3335.71905	-0.475
