Data from AgNPs_FTO_APTES_UA_2uM_CRN_2uM_R6G_10uM_NaF_0.1M_Addition_RamanShift__11__12-11-35-058.txt Node

Date: Wed Feb 02 12:11:35 GMT 2022
User: TCL
Spectrometer: QEP01345
Trigger mode: 4
Integration Time (sec): 7.000000E0
Scans to average: 10
Electric dark correction enabled: true
Nonlinearity correction enabled: false
Boxcar width: 0
XAxis mode: Raman Shifts
Number of Pixels in Spectrum: 1044
>>>>>Begin Spectral Data<<<<<
46.04893	1.175
50.45542	0.775
54.85868	-0.825
59.25871	-1.025
63.6555	107.575
68.04907	114.975
72.43941	120.575
76.82654	125.175
81.21044	126.975
85.59113	133.275
89.96862	133.075
94.34289	142.875
98.71396	148.875
103.08183	157.275
107.4465	160.875
111.80798	164.975
116.16626	169.075
120.52136	179.875
124.87327	179.675
129.222	193.175
133.56755	206.375
137.90993	225.975
142.24913	254.075
146.58517	286.375
150.91804	341.175
155.24774	412.475
159.57429	518.475
163.89768	674.475
168.21792	898.075
172.53501	1230.375
176.84895	1711.175
181.15975	2411.275
185.46741	3385.575
189.77193	4681.375
194.07331	6256.175
198.37157	8079.675
202.6667	10007.375
206.9587	11867.975
211.24758	13699.875
215.53334	15528.075
219.81599	17511.275
224.09553	19672.775
228.37195	22010.675
232.64527	24590.575
236.91549	27316.475
241.18261	30098.375
245.44663	32736.975
249.70755	35066.375
253.96539	37121.975
258.22014	38841.275
262.4718	40226.075
266.72039	41107.275
270.96589	41474.075
275.20832	41508.375
279.44768	41194.175
283.68397	40809.475
287.91719	40465.875
292.14735	40250.375
296.37445	40105.975
300.59849	40037.175
304.81948	40128.375
309.03742	40144.275
313.25231	39993.475
317.46415	39483.675
321.67296	38745.775
325.87872	38020.675
330.08145	37616.575
334.28114	37504.875
338.47781	37688.275
342.67145	38006.775
346.86207	38484.075
351.04966	39039.875
355.23424	39569.875
359.4158	40123.975
363.59435	40525.875
367.76989	40826.775
371.94243	40939.175
376.11196	40952.775
380.27849	40901.375
384.44203	41014.775
388.60257	41280.875
392.76012	41792.575
396.91468	42460.675
401.06626	43217.475
405.21485	43684.475
409.36047	43504.675
413.50311	43034.075
417.64277	42864.575
421.77947	43146.075
425.9132	43458.975
430.04396	43720.175
434.17176	43845.675
438.2966	43955.275
442.41849	44335.275
446.53742	45162.975
450.6534	46089.275
454.76644	46654.975
458.87653	46975.575
462.98368	46921.875
467.08789	46712.575
471.18916	46178.975
475.2875	45657.475
479.38291	45374.775
483.4754	45344.975
487.56496	45006.175
491.6516	44490.875
495.73531	43869.275
499.81612	43393.575
503.89401	43446.775
507.96899	43696.275
512.04106	43705.775
516.11023	43449.075
520.1765	42932.475
524.23987	42450.775
528.30034	41924.275
532.35792	41503.475
536.41261	41042.475
540.46441	40667.775
544.51333	40733.975
548.55936	41143.475
552.60252	41917.775
556.64279	42810.475
560.6802	43600.375
564.71473	44167.175
568.7464	45083.475
572.7752	46799.375
576.80114	48880.375
580.82422	50993.375
584.84444	53198.275
588.86181	55838.775
592.87633	58205.475
596.888	57791.475
600.89682	54428.775
604.9028	52284.775
608.90594	53473.675
612.90624	55205.275
616.90371	51753.975
620.89834	45312.475
624.89015	42543.775
628.87913	42485.775
632.86528	43014.375
636.84862	42898.175
640.82913	42028.675
644.80683	40866.975
648.78172	40174.575
652.75379	40095.975
656.72306	40471.575
660.68952	40835.275
664.65319	40658.175
668.61405	40163.775
672.57211	40043.475
676.52738	40219.575
680.47986	40168.575
684.42955	39891.175
688.37646	39764.275
692.32058	39986.475
696.26192	40455.575
700.20048	41114.175
704.13626	41445.275
708.06928	41734.075
711.99952	41707.575
715.927	41595.275
719.85171	41518.775
723.77365	41124.375
727.69284	40448.775
731.60928	39744.075
735.52295	39489.175
739.43388	39415.075
743.34206	39496.575
747.24749	39876.775
751.15017	40332.775
755.05012	41125.875
758.94733	42299.275
762.8418	44110.775
766.73354	46685.175
770.62254	48829.375
774.50882	48781.775
778.39237	46605.275
782.27321	44098.575
786.15132	42036.075
790.02671	40622.175
793.89938	39856.475
797.76935	39492.875
801.6366	39259.375
805.50115	39144.975
809.36299	39028.475
813.22213	38816.075
817.07857	38687.075
820.93231	38587.775
824.78336	38436.575
828.63172	38147.575
832.47738	37975.275
836.32036	37925.475
840.16066	37985.875
843.99827	37914.375
847.8332	37851.975
851.66546	37975.675
855.49504	38103.475
859.32195	38133.975
863.1462	37952.975
866.96777	37883.875
870.78668	37888.075
874.60293	37890.875
878.41652	37934.475
882.22745	38039.175
886.03573	38198.175
889.84136	38285.475
893.64433	38165.975
897.44466	38076.075
901.24235	38068.875
905.0374	38014.075
908.8298	37996.175
912.61957	38103.775
916.40671	38485.375
920.19121	39175.275
923.97308	39645.575
927.75233	39687.075
931.52895	39128.475
935.30295	38315.775
939.07433	37495.375
942.84309	36865.475
946.60924	36512.875
950.37278	36383.075
954.13371	36418.375
957.89203	36405.075
961.64774	36341.975
965.40086	36353.975
969.15137	36228.075
972.89929	36018.475
976.64461	35817.075
980.38733	35722.675
984.12747	35649.675
987.86502	35741.975
991.59999	35914.575
995.33237	36138.375
999.06217	36543.575
1002.78939	37125.975
1006.51404	37915.075
1010.23611	38654.575
1013.95561	39059.275
1017.67255	39172.575
1021.38692	38771.675
1025.09872	38149.975
1028.80796	37516.575
1032.51465	37292.675
1036.21877	37384.275
1039.92035	37552.075
1043.61937	37721.675
1047.31584	37916.875
1051.00976	38055.175
1054.70114	38228.175
1058.38998	38527.275
1062.07627	38925.675
1065.76003	39502.975
1069.44126	40165.975
1073.11995	40908.375
1076.79611	41537.075
1080.46974	41799.875
1084.14085	42061.675
1087.80943	42486.375
1091.47549	42910.775
1095.13903	43221.475
1098.80005	42720.475
1102.45857	41581.075
1106.11456	40524.975
1109.76805	39821.075
1113.41903	39532.475
1117.06751	39557.275
1120.71348	39837.675
1124.35696	40220.475
1127.99793	40614.975
1131.63641	41003.975
1135.2724	41056.775
1138.90589	41084.175
1142.5369	41290.475
1146.16542	41746.875
1149.79145	42283.775
1153.415	42798.575
1157.03607	43475.675
1160.65467	44603.275
1164.27079	46575.375
1167.88443	48957.575
1171.49561	51343.175
1175.10432	54057.875
1178.71056	57398.475
1182.31434	60466.375
1185.91565	62241.075
1189.51451	62416.775
1193.11091	61625.975
1196.70485	60020.275
1200.29634	57956.875
1203.88538	56539.275
1207.47197	56071.775
1211.05612	56054.875
1214.63782	55464.475
1218.21708	53971.175
1221.79391	51940.375
1225.36829	50247.275
1228.94024	49361.575
1232.50976	48715.675
1236.07685	48292.075
1239.6415	47924.075
1243.20374	47821.575
1246.76355	48150.275
1250.32093	48797.075
1253.8759	49762.675
1257.42845	51111.275
1260.97859	52723.975
1264.52631	54303.975
1268.07163	55939.575
1271.61453	57425.975
1275.15503	59101.775
1278.69312	61036.575
1282.22882	63224.775
1285.76211	65897.375
1289.29301	68657.175
1292.82151	71743.875
1296.34761	75370.875
1299.87133	79290.075
1303.39266	83010.375
1306.9116	85864.475
1310.42815	87475.775
1313.94233	87867.375
1317.45412	87253.375
1320.96354	86389.275
1324.47058	86173.875
1327.97525	86310.775
1331.47754	86375.975
1334.97747	86104.075
1338.47502	85381.875
1341.97022	84469.375
1345.46305	83399.175
1348.95352	82299.775
1352.44163	81279.075
1355.92738	81339.975
1359.41078	82730.875
1362.89183	84295.675
1366.37053	83607.775
1369.84688	79121.675
1373.32088	71973.475
1376.79254	66488.675
1380.26186	64454.275
1383.72883	64593.175
1387.19347	64760.975
1390.65578	64249.675
1394.11575	63894.675
1397.57339	64395.475
1401.0287	65420.975
1404.48168	66069.975
1407.93234	65552.075
1411.38068	63787.875
1414.82669	61330.475
1418.27039	58598.075
1421.71177	56103.475
1425.15083	54287.575
1428.58758	53554.275
1432.02203	54104.175
1435.45416	55586.975
1438.88399	57290.275
1442.31151	58514.375
1445.73673	59150.775
1449.15965	59727.875
1452.58027	59919.075
1455.9986	60088.275
1459.41463	60576.975
1462.82837	61476.175
1466.23982	62522.475
1469.64898	63285.375
1473.05586	63596.475
1476.46045	63507.975
1479.86276	63214.875
1483.26279	62709.775
1486.66054	62506.475
1490.05602	62906.575
1493.44922	63931.375
1496.84016	65031.275
1500.22882	66278.675
1503.61521	67585.675
1506.99934	68748.175
1510.38121	69635.375
1513.76081	69847.475
1517.13816	69358.375
1520.51324	68799.975
1523.88607	68774.375
1527.25665	69004.075
1530.62498	69112.675
1533.99105	68382.575
1537.35488	66952.575
1540.71647	64825.075
1544.07581	62380.775
1547.4329	60149.175
1550.78776	58443.675
1554.14038	57380.775
1557.49077	56846.175
1560.83892	56454.475
1564.18484	56319.875
1567.52853	56389.575
1570.86999	56820.675
1574.20922	58030.875
1577.54624	59287.975
1580.88103	60133.075
1584.2136	61220.975
1587.54395	63265.375
1590.87208	66290.475
1594.19801	69675.975
1597.52172	72301.575
1600.84321	72100.175
1604.16251	68132.875
1607.47959	62595.675
1610.79447	57131.175
1614.10715	52385.975
1617.41763	48567.875
1620.7259	46090.875
1624.03199	44750.575
1627.33587	44904.275
1630.63757	46388.975
1633.93707	49662.075
1637.23439	55190.375
1640.52951	63243.975
1643.82246	72817.175
1647.11321	80219.275
1650.40179	81277.675
1653.68819	74941.575
1656.97241	64504.675
1660.25446	54544.775
1663.53433	47062.175
1666.81203	42216.275
1670.08756	39205.275
1673.36092	37320.575
1676.63211	36067.075
1679.90115	35274.475
1683.16801	34589.575
1686.43272	34122.375
1689.69527	33827.975
1692.95567	33473.275
1696.2139	33267.475
1699.46999	33138.975
1702.72392	32963.775
1705.97571	32844.175
1709.22535	32745.575
1712.47284	32698.275
1715.71819	32589.475
1718.96139	32483.875
1722.20246	32376.775
1725.44139	32242.975
1728.67818	32040.975
1731.91284	31870.775
1735.14537	31648.375
1738.37576	31489.975
1741.60403	31356.175
1744.83017	31233.975
1748.05418	31130.275
1751.27607	31121.075
1754.49584	31004.375
1757.71349	30984.275
1760.92903	30936.275
1764.14244	30906.475
1767.35375	30861.575
1770.56294	30790.175
1773.77002	30711.375
1776.97499	30682.275
1780.17785	30593.475
1783.37861	30540.375
1786.57727	30463.175
1789.77382	30396.075
1792.96828	30332.875
1796.16064	30270.175
1799.3509	30172.975
1802.53907	30118.275
1805.72514	30012.375
1808.90913	29904.475
1812.09102	29863.875
1815.27083	29831.575
1818.44856	29781.975
1821.6242	29761.675
1824.79776	29768.775
1827.96924	29760.375
1831.13864	29719.175
1834.30597	29728.875
1837.47122	29723.475
1840.6344	29729.875
1843.7955	29722.975
1846.95454	29686.475
1850.11151	29675.975
1853.26642	29670.575
1856.41926	29592.175
1859.57004	29586.175
1862.71876	29559.975
1865.86542	29528.875
1869.01003	29471.075
1872.15258	29412.475
1875.29308	29341.875
1878.43152	29258.475
1881.56792	29223.275
1884.70227	29153.475
1887.83457	29134.275
1890.96482	29142.575
1894.09304	29003.875
1897.21921	28975.375
1900.34335	28984.975
1903.46544	28923.375
1906.58551	28848.275
1909.70353	28759.475
1912.81953	28707.475
1915.93349	28638.075
1919.04543	28543.375
1922.15534	28457.375
1925.26322	28426.575
1928.36908	28315.475
1931.47292	28267.575
1934.57473	28123.375
1937.67453	28066.575
1940.77232	27985.175
1943.86808	27897.775
1946.96184	27841.375
1950.05358	27765.675
1953.14331	27658.375
1956.23103	27605.875
1959.31675	27510.175
1962.40046	27421.275
1965.48217	27325.175
1968.56188	27235.575
1971.63959	27133.275
1974.7153	27073.675
1977.78901	26931.375
1980.86073	26849.275
1983.93046	26742.575
1986.99819	26626.175
1990.06394	26546.575
1993.1277	26456.175
1996.18947	26346.775
1999.24925	26324.275
2002.30706	26233.875
2005.36288	26175.675
2008.41672	26098.575
2011.46859	26007.575
2014.51848	25967.875
2017.56639	25872.475
2020.61233	25800.775
2023.6563	25738.475
2026.6983	25706.975
2029.73833	25626.975
2032.7764	25563.575
2035.8125	25477.175
2038.84664	25437.275
2041.87881	25389.875
2044.90903	25354.375
2047.93729	25314.475
2050.96359	25235.675
2053.98794	25209.175
2057.01034	25202.175
2060.03078	25168.575
2063.04927	25170.475
2066.06582	25128.375
2069.08042	25047.575
2072.09307	25038.875
2075.10378	25058.375
2078.11255	25090.475
2081.11938	25084.375
2084.12426	25000.675
2087.12722	25016.875
2090.12824	24977.975
2093.12732	24968.275
2096.12447	25003.775
2099.11969	24988.275
2102.11299	24991.375
2105.10435	24973.975
2108.09379	25002.575
2111.08131	24992.875
2114.0669	24971.875
2117.05057	24986.575
2120.03233	25027.575
2123.01216	25015.875
2125.99008	25006.275
2128.96609	25015.875
2131.94018	24993.975
2134.91236	24967.975
2137.88263	24982.575
2140.851	24920.575
2143.81746	24958.975
2146.78201	24925.175
2149.74466	24928.475
2152.7054	24933.775
2155.66425	24922.375
2158.6212	24927.875
2161.57625	24907.175
2164.52941	24902.275
2167.48067	24888.875
2170.43004	24857.975
2173.37752	24808.675
2176.32311	24826.475
2179.26681	24827.775
2182.20863	24872.375
2185.14856	24848.375
2188.08661	24870.075
2191.02278	24852.875
2193.95707	24804.875
2196.88948	24758.975
2199.82001	24738.275
2202.74867	24693.575
2205.67545	24679.975
2208.60037	24616.275
2211.52341	24574.175
2214.44458	24531.975
2217.36388	24469.975
2220.28132	24424.275
2223.1969	24384.075
2226.11061	24340.375
2229.02246	24299.175
2231.93245	24311.475
2234.84058	24286.475
2237.74686	24233.875
2240.65128	24191.475
2243.55385	24129.475
2246.45456	24110.975
2249.35343	24040.675
2252.25044	23969.075
2255.14561	23940.675
2258.03893	23866.375
2260.93041	23799.975
2263.82004	23729.975
2266.70783	23676.275
2269.59378	23530.475
2272.4779	23552.975
2275.36017	23438.375
2278.24061	23410.475
2281.11922	23337.175
2283.996	23317.275
2286.87094	23277.875
2289.74405	23218.275
2292.61534	23198.075
2295.4848	23143.475
2298.35243	23077.775
2301.21824	23069.375
2304.08223	23086.875
2306.94439	23047.475
2309.80474	23015.775
2312.66327	23003.775
2315.51999	22983.375
2318.37489	22982.175
2321.22797	22946.775
2324.07925	22876.775
2326.92871	22842.975
2329.77637	22866.975
2332.62222	22801.975
2335.46626	22733.275
2338.3085	22699.075
2341.14893	22697.975
2343.98756	22667.575
2346.8244	22666.775
2349.65943	22655.175
2352.49267	22653.375
2355.32411	22689.175
2358.15376	22655.575
2360.98161	22647.375
2363.80768	22625.175
2366.63195	22606.175
2369.45444	22579.775
2372.27514	22514.075
2375.09405	22489.075
2377.91118	22454.275
2380.72652	22337.675
2383.54009	22313.575
2386.35187	22314.375
2389.16188	22228.475
2391.97011	22233.375
2394.77657	22164.875
2397.58125	22104.875
2400.38416	22097.375
2403.18529	21990.575
2405.98466	22032.275
2408.78226	22001.675
2411.57809	21955.975
2414.37216	21985.775
2417.16446	21976.375
2419.955	21915.675
2422.74378	21882.575
2425.5308	21855.375
2428.31606	21892.175
2431.09956	21819.275
2433.88131	21795.275
2436.6613	21814.075
2439.43954	21795.875
2442.21603	21809.875
2444.99077	21729.375
2447.76377	21756.575
2450.53501	21698.075
2453.30451	21707.875
2456.07226	21709.275
2458.83827	21640.375
2461.60254	21640.875
2464.36507	21695.675
2467.12586	21593.675
2469.88492	21566.975
2472.64224	21598.175
2475.39782	21549.875
2478.15167	21583.575
2480.90379	21511.375
2483.65417	21558.875
2486.40283	21539.275
2489.14976	21499.675
2491.89497	21476.175
2494.63845	21511.075
2497.3802	21450.275
2500.12024	21499.175
2502.85855	21466.475
2505.59514	21435.575
2508.33002	21437.875
2511.06318	21381.475
2513.79462	21374.675
2516.52435	21354.775
2519.25237	21354.575
2521.97867	21288.275
2524.70327	21253.975
2527.42616	21226.675
2530.14734	21248.675
2532.86681	21209.575
2535.58458	21160.175
2538.30065	21138.175
2541.01501	21112.175
2543.72768	21142.675
2546.43864	21135.575
2549.14791	21042.075
2551.85548	21036.975
2554.56136	21043.675
2557.26554	21011.475
2559.96803	20963.075
2562.66883	20954.575
2565.36794	20896.675
2568.06536	20899.775
2570.7611	20887.775
2573.45514	20854.275
2576.14751	20786.875
2578.83819	20764.575
2581.52719	20768.375
2584.21451	20737.775
2586.90015	20693.475
2589.58411	20671.375
2592.2664	20659.875
2594.94701	20610.675
2597.62594	20591.375
2600.30321	20532.475
2602.9788	20537.775
2605.65273	20545.875
2608.32498	20507.575
2610.99557	20485.675
2613.66449	20505.975
2616.33175	20467.875
2618.99734	20469.075
2621.66128	20449.875
2624.32355	20418.075
2626.98416	20405.475
2629.64311	20371.875
2632.30041	20340.575
2634.95605	20350.775
2637.61004	20322.575
2640.26238	20309.075
2642.91306	20287.675
2645.56209	20288.875
2648.20948	20316.375
2650.85521	20294.175
2653.4993	20310.275
2656.14175	20254.375
2658.78255	20287.575
2661.42171	20260.675
2664.05923	20290.975
2666.6951	20306.575
2669.32934	20259.275
2671.96194	20266.275
2674.59291	20288.275
2677.22224	20273.475
2679.84993	20276.375
2682.476	20237.275
2685.10043	20267.975
2687.72324	20255.775
2690.34441	20255.775
2692.96396	20244.975
2695.58188	20257.375
2698.19818	20257.275
2700.81285	20262.875
2703.4259	20230.275
2706.03733	20279.775
2708.64714	20237.675
2711.25533	20245.375
2713.86191	20224.675
2716.46687	20296.575
2719.07021	20276.575
2721.67194	20304.375
2724.27206	20289.875
2726.87057	20276.675
2729.46747	20287.775
2732.06276	20298.775
2734.65644	20323.875
2737.24852	20318.675
2739.83899	20266.975
2742.42786	20319.075
2745.01513	20225.475
2747.60079	20185.275
2750.18486	20168.875
2752.76733	20159.075
2755.3482	20167.475
2757.92747	20122.075
2760.50515	20095.775
2763.08123	20121.975
2765.65573	20080.575
2768.22863	20081.075
2770.79994	20052.075
2773.36967	20053.575
2775.9378	20034.675
2778.50435	20001.975
2781.06932	19947.775
2783.6327	19978.175
2786.1945	19937.775
2788.75471	19908.475
2791.31335	19832.975
2793.87041	19849.375
2796.42589	19832.275
2798.97979	19831.275
2801.53212	19780.675
2804.08288	19769.975
2806.63206	19688.075
2809.17967	19650.575
2811.72571	19582.175
2814.27018	19557.875
2816.81308	19465.675
2819.35442	19495.675
2821.89419	19431.775
2824.43239	19425.275
2826.96904	19399.675
2829.50412	19417.575
2832.03763	19349.775
2834.56959	19352.075
2837.1	19314.975
2839.62884	19326.275
2842.15613	19306.475
2844.68186	19354.175
2847.20604	19350.075
2849.72867	19351.475
2852.24974	19351.475
2854.76927	19341.975
2857.28724	19330.875
2859.80367	19271.175
2862.31855	19215.575
2864.83189	19197.875
2867.34368	19178.575
2869.85393	19161.575
2872.36264	19143.775
2874.8698	19123.975
2877.37543	19145.075
2879.87952	19144.275
2882.38207	19143.275
2884.88308	19117.975
2887.38256	19088.075
2889.88051	19083.075
2892.37692	19105.775
2894.8718	19137.475
2897.36515	19181.675
2899.85698	19131.375
2902.34727	19136.675
2904.83604	19130.975
2907.32328	19176.775
2909.809	19115.875
2912.29319	19135.975
2914.77587	19110.975
2917.25702	19154.675
2919.73665	19106.475
2922.21476	19096.375
2924.69136	19127.675
2927.16644	19097.175
2929.64	19074.075
2932.11205	19021.275
2934.58258	18935.775
2937.05161	18965.275
2939.51912	18980.675
2941.98513	18948.375
2944.44962	18896.275
2946.91261	18836.975
2949.37409	18830.175
2951.83407	18841.775
2954.29254	18825.875
2956.74951	18745.975
2959.20498	18728.875
2961.65895	18700.175
2964.11142	18699.975
2966.56239	18658.375
2969.01186	18617.775
2971.45984	18542.575
2973.90632	18530.375
2976.35131	18514.875
2978.7948	18451.075
2981.23681	18400.175
2983.67732	18319.675
2986.11635	18260.075
2988.55388	18194.975
2990.98993	18164.475
2993.4245	18098.275
2995.85758	18051.875
2998.28917	17986.875
3000.71928	17975.975
3003.14791	17961.575
3005.57506	17906.875
3008.00073	17841.175
3010.42493	17816.075
3012.84764	17788.775
3015.26888	17777.775
3017.68865	17736.075
3020.10694	17676.475
3022.52376	17643.875
3024.9391	17621.875
3027.35298	17644.775
3029.76539	17573.975
3032.17632	17518.575
3034.5858	17501.175
3036.9938	17465.675
3039.40034	17434.775
3041.80542	17457.575
3044.20903	17414.775
3046.61118	17373.175
3049.01187	17326.875
3051.4111	17338.975
3053.80888	17266.275
3056.20519	17245.275
3058.60005	17168.375
3060.99345	17127.575
3063.3854	17069.775
3065.7759	16990.475
3068.16494	16949.375
3070.55254	16883.675
3072.93868	16845.175
3075.32338	16802.275
3077.70662	16773.375
3080.08842	16731.975
3082.46878	16726.275
3084.84769	16648.175
3087.22515	16644.075
3089.60118	16621.175
3091.97576	16606.575
3094.3489	16594.975
3096.72061	16575.575
3099.09087	16540.175
3101.4597	16535.975
3103.82709	16509.975
3106.19305	16451.175
3108.55757	16425.475
3110.92066	16376.275
3113.28232	16347.775
3115.64255	16308.875
3118.00134	16245.575
3120.35871	16219.175
3122.71466	16164.775
3125.06917	16154.175
3127.42226	16068.275
3129.77393	16101.075
3132.12417	16062.575
3134.47299	16054.075
3136.82039	16039.375
3139.16636	16066.075
3141.51092	16053.075
3143.85406	16060.775
3146.19579	16037.575
3148.53609	16022.575
3150.87499	16002.675
3153.21246	16007.675
3155.54853	16014.475
3157.88318	15961.175
3160.21642	15972.975
3162.54826	15948.475
3164.87868	15935.875
3167.2077	15882.775
3169.5353	15860.275
3171.86151	15894.575
3174.18631	15815.275
3176.5097	15828.275
3178.83169	15782.075
3181.15228	15797.775
3183.47147	15725.075
3185.78926	15744.175
3188.10565	15667.075
3190.42065	15646.975
3192.73424	15656.275
3195.04645	15631.075
3197.35725	15656.475
3199.66667	15634.175
3201.97469	15621.475
3204.28132	15558.475
3206.58656	15551.175
3208.8904	15578.075
3211.19287	15569.575
3213.49394	15568.075
3215.79363	15560.975
3218.09193	15550.275
3220.38884	15503.475
3222.68438	15536.675
3224.97853	15496.675
3227.2713	15454.475
3229.56269	15433.875
3231.8527	15419.575
3234.14133	15393.075
3236.42858	15375.275
3238.71446	15379.575
3240.99896	15287.075
3243.28209	15278.375
3245.56384	15280.975
3247.84423	15247.675
3250.12324	15233.475
3252.40088	15175.475
3254.67715	15176.475
3256.95205	15110.775
3259.22558	15137.075
3261.49775	15068.475
3263.76855	15043.875
3266.03799	15029.875
3268.30606	14992.975
3270.57277	14942.975
3272.83812	14939.375
3275.10211	14874.575
3277.36474	14842.875
3279.62601	14878.075
3281.88593	14893.775
3284.14448	14876.375
3286.40168	14866.375
3288.65753	14867.875
3290.91202	14811.375
3293.16516	14754.375
3295.41695	14714.875
3297.66738	14649.075
3299.91647	14603.375
3302.16421	14472.175
3304.4106	14382.275
3306.65564	14285.175
3308.89933	14179.075
3311.14169	14101.875
3313.38269	13968.375
3315.62236	13907.075
3317.86068	13737.175
3320.09766	13626.875
3322.3333	13511.775
3324.5676	13485.175
3326.80056	13248.075
3329.03219	13174.075
3331.26248	2.975
3333.49143	-0.925
3335.71905	-1.725
