Data from AgNPs_FTO_APTES_UA_2uM_CRN_200uM_R6G_10uM_NaF_0.1M_Addition_RamanShift__22__16-44-35-377.txt Node

Date: Wed Feb 02 16:44:35 GMT 2022
User: TCL
Spectrometer: QEP01345
Trigger mode: 4
Integration Time (sec): 7.000000E0
Scans to average: 10
Electric dark correction enabled: true
Nonlinearity correction enabled: false
Boxcar width: 0
XAxis mode: Raman Shifts
Number of Pixels in Spectrum: 1044
>>>>>Begin Spectral Data<<<<<
46.04893	0.8125
50.45542	0.3125
54.85868	-0.4875
59.25871	-1.9875
63.6555	70.9125
68.04907	77.6125
72.43941	81.4125
76.82654	88.4125
81.21044	88.2125
85.59113	95.1125
89.96862	95.7125
94.34289	97.8125
98.71396	101.4125
103.08183	109.4125
107.4465	114.4125
111.80798	112.3125
116.16626	113.4125
120.52136	116.0125
124.87327	120.1125
129.222	126.8125
133.56755	133.9125
137.90993	144.4125
142.24913	161.9125
146.58517	179.8125
150.91804	206.9125
155.24774	244.9125
159.57429	302.0125
163.89768	379.0125
168.21792	506.7125
172.53501	693.3125
176.84895	953.5125
181.15975	1340.5125
185.46741	1877.5125
189.77193	2564.8125
194.07331	3435.4125
198.37157	4426.9125
202.6667	5459.5125
206.9587	6484.6125
211.24758	7497.8125
215.53334	8522.0125
219.81599	9596.8125
224.09553	10799.7125
228.37195	12076.3125
232.64527	13467.2125
236.91549	14953.3125
241.18261	16428.9125
245.44663	17851.6125
249.70755	19150.5125
253.96539	20284.8125
258.22014	21296.5125
262.4718	22120.0125
266.72039	22737.6125
270.96589	23087.4125
275.20832	23282.0125
279.44768	23284.0125
283.68397	23228.6125
287.91719	23204.6125
292.14735	23258.1125
296.37445	23399.9125
300.59849	23522.7125
304.81948	23480.6125
309.03742	23203.2125
313.25231	22747.1125
317.46415	22004.2125
321.67296	21243.9125
325.87872	20623.8125
330.08145	20311.6125
334.28114	20203.7125
338.47781	20280.6125
342.67145	20488.2125
346.86207	20775.2125
351.04966	21125.6125
355.23424	21457.4125
359.4158	21749.2125
363.59435	21968.8125
367.76989	22123.9125
371.94243	22201.2125
376.11196	22354.8125
380.27849	22480.6125
384.44203	22652.3125
388.60257	22919.8125
392.76012	23146.6125
396.91468	23473.6125
401.06626	23829.8125
405.21485	24038.1125
409.36047	23958.6125
413.50311	23687.1125
417.64277	23452.4125
421.77947	23446.6125
425.9132	23577.1125
430.04396	23851.6125
434.17176	24101.0125
438.2966	24407.3125
442.41849	24881.8125
446.53742	25661.9125
450.6534	26580.9125
454.76644	27292.1125
458.87653	27613.9125
462.98368	27486.2125
467.08789	27204.2125
471.18916	26972.1125
475.2875	27004.2125
479.38291	27235.5125
483.4754	27215.9125
487.56496	26769.3125
491.6516	25977.6125
495.73531	25152.8125
499.81612	24617.5125
503.89401	24504.5125
507.96899	24432.0125
512.04106	24238.5125
516.11023	23966.7125
520.1765	23585.8125
524.23987	23319.6125
528.30034	23037.1125
532.35792	22839.3125
536.41261	22647.3125
540.46441	22511.9125
544.51333	22635.3125
548.55936	23029.2125
552.60252	23639.4125
556.64279	24429.4125
560.6802	25062.1125
564.71473	25575.6125
568.7464	26154.3125
572.7752	26908.4125
576.80114	27437.5125
580.82422	27638.5125
584.84444	27816.0125
588.86181	28167.6125
592.87633	28738.0125
596.888	29039.1125
600.89682	28918.4125
604.9028	29103.4125
608.90594	30335.4125
612.90624	31483.3125
616.90371	29322.9125
620.89834	24958.2125
624.89015	23015.4125
628.87913	22928.8125
632.86528	23241.0125
636.84862	23366.3125
640.82913	23048.3125
644.80683	22397.7125
648.78172	21772.3125
652.75379	21496.9125
656.72306	21569.4125
660.68952	21808.1125
664.65319	21751.2125
668.61405	21438.6125
672.57211	21316.0125
676.52738	21391.6125
680.47986	21420.0125
684.42955	21363.4125
688.37646	21284.9125
692.32058	21342.8125
696.26192	21526.6125
700.20048	21767.1125
704.13626	21970.7125
708.06928	21982.7125
711.99952	21883.2125
715.927	21772.9125
719.85171	21758.0125
723.77365	21766.6125
727.69284	21587.0125
731.60928	21436.8125
735.52295	21369.9125
739.43388	21322.7125
743.34206	21359.4125
747.24749	21496.0125
751.15017	21695.4125
755.05012	22168.9125
758.94733	22901.4125
762.8418	24167.1125
766.73354	25908.9125
770.62254	27396.0125
774.50882	27489.1125
778.39237	26003.5125
782.27321	23973.4125
786.15132	22439.7125
790.02671	21541.2125
793.89938	21074.4125
797.76935	20929.0125
801.6366	20925.5125
805.50115	20906.2125
809.36299	20859.4125
813.22213	20738.6125
817.07857	20759.0125
820.93231	20730.6125
824.78336	20597.9125
828.63172	20427.3125
832.47738	20328.1125
836.32036	20297.4125
840.16066	20310.5125
843.99827	20283.7125
847.8332	20214.3125
851.66546	20123.5125
855.49504	20077.7125
859.32195	20059.5125
863.1462	20005.4125
866.96777	19955.4125
870.78668	19945.4125
874.60293	19915.4125
878.41652	19931.9125
882.22745	19991.3125
886.03573	19974.3125
889.84136	19998.6125
893.64433	19950.6125
897.44466	19846.3125
901.24235	19745.2125
905.0374	19720.2125
908.8298	19668.5125
912.61957	19736.3125
916.40671	19970.8125
920.19121	20280.4125
923.97308	20469.5125
927.75233	20401.7125
931.52895	20150.0125
935.30295	19837.6125
939.07433	19455.0125
942.84309	19169.5125
946.60924	18956.7125
950.37278	18873.6125
954.13371	18910.8125
957.89203	18934.8125
961.64774	18961.5125
965.40086	18998.1125
969.15137	18836.5125
972.89929	18653.2125
976.64461	18499.4125
980.38733	18423.3125
984.12747	18456.5125
987.86502	18541.2125
991.59999	18722.9125
995.33237	18986.0125
999.06217	19423.2125
1002.78939	20004.8125
1006.51404	20371.1125
1010.23611	20624.3125
1013.95561	20881.2125
1017.67255	20869.5125
1021.38692	20623.4125
1025.09872	20307.1125
1028.80796	20110.5125
1032.51465	20254.5125
1036.21877	20478.3125
1039.92035	20522.5125
1043.61937	20491.5125
1047.31584	20316.1125
1051.00976	20159.2125
1054.70114	20129.7125
1058.38998	20273.2125
1062.07627	20561.6125
1065.76003	20813.6125
1069.44126	21042.6125
1073.11995	21259.3125
1076.79611	21401.0125
1080.46974	21413.7125
1084.14085	21516.5125
1087.80943	21742.5125
1091.47549	22012.5125
1095.13903	22135.7125
1098.80005	21982.3125
1102.45857	21483.8125
1106.11456	21093.2125
1109.76805	20933.0125
1113.41903	20995.5125
1117.06751	21151.5125
1120.71348	21417.8125
1124.35696	21671.0125
1127.99793	21996.2125
1131.63641	22186.3125
1135.2724	22077.1125
1138.90589	21981.5125
1142.5369	22020.8125
1146.16542	22261.9125
1149.79145	22607.9125
1153.415	23076.0125
1157.03607	23632.4125
1160.65467	24460.0125
1164.27079	25619.2125
1167.88443	27105.0125
1171.49561	28923.3125
1175.10432	31184.9125
1178.71056	33978.2125
1182.31434	36487.1125
1185.91565	37776.4125
1189.51451	37882.8125
1193.11091	37278.5125
1196.70485	36307.9125
1200.29634	35099.4125
1203.88538	33991.1125
1207.47197	33285.1125
1211.05612	32796.6125
1214.63782	32055.4125
1218.21708	31224.0125
1221.79391	30399.4125
1225.36829	29676.1125
1228.94024	28964.2125
1232.50976	28283.8125
1236.07685	27767.1125
1239.6415	27571.1125
1243.20374	27592.2125
1246.76355	27792.8125
1250.32093	28156.8125
1253.8759	28773.3125
1257.42845	29576.2125
1260.97859	30460.6125
1264.52631	31183.5125
1268.07163	31941.5125
1271.61453	32871.6125
1275.15503	33923.8125
1278.69312	35116.2125
1282.22882	36193.3125
1285.76211	37435.8125
1289.29301	39114.9125
1292.82151	41400.7125
1296.34761	44164.5125
1299.87133	47289.3125
1303.39266	50340.4125
1306.9116	53191.4125
1310.42815	55543.3125
1313.94233	57172.7125
1317.45412	57755.8125
1320.96354	57721.9125
1324.47058	57618.8125
1327.97525	57374.6125
1331.47754	57139.8125
1334.97747	57080.8125
1338.47502	57259.4125
1341.97022	56766.7125
1345.46305	55368.9125
1348.95352	53402.8125
1352.44163	51426.1125
1355.92738	50387.9125
1359.41078	50516.8125
1362.89183	51053.3125
1366.37053	50119.1125
1369.84688	46794.1125
1373.32088	42597.6125
1376.79254	39696.2125
1380.26186	38939.4125
1383.72883	39509.2125
1387.19347	40391.0125
1390.65578	40965.2125
1394.11575	41748.4125
1397.57339	43100.6125
1401.0287	44759.2125
1404.48168	46137.9125
1407.93234	46527.9125
1411.38068	45616.2125
1414.82669	43578.4125
1418.27039	40758.4125
1421.71177	37905.8125
1425.15083	35492.3125
1428.58758	34035.8125
1432.02203	33756.5125
1435.45416	34417.7125
1438.88399	35726.1125
1442.31151	37072.3125
1445.73673	38243.2125
1449.15965	39465.4125
1452.58027	40580.2125
1455.9986	41264.6125
1459.41463	41790.5125
1462.82837	42449.8125
1466.23982	43149.2125
1469.64898	43577.5125
1473.05586	43701.8125
1476.46045	43305.6125
1479.86276	42551.5125
1483.26279	41478.8125
1486.66054	40527.1125
1490.05602	39963.8125
1493.44922	39490.7125
1496.84016	39087.2125
1500.22882	38916.3125
1503.61521	39144.1125
1506.99934	39839.9125
1510.38121	40673.2125
1513.76081	41163.5125
1517.13816	40831.2125
1520.51324	39941.3125
1523.88607	39215.6125
1527.25665	38970.7125
1530.62498	39187.7125
1533.99105	39506.3125
1537.35488	39526.4125
1540.71647	39215.0125
1544.07581	38509.8125
1547.4329	37529.1125
1550.78776	36490.5125
1554.14038	35841.1125
1557.49077	35471.7125
1560.83892	35282.8125
1564.18484	35182.9125
1567.52853	35154.0125
1570.86999	35305.4125
1574.20922	35939.2125
1577.54624	36810.1125
1580.88103	37651.0125
1584.2136	38644.3125
1587.54395	40390.0125
1590.87208	42782.0125
1594.19801	45378.7125
1597.52172	47697.9125
1600.84321	48252.5125
1604.16251	46126.9125
1607.47959	42193.2125
1610.79447	37793.8125
1614.10715	33807.9125
1617.41763	30653.2125
1620.7259	28356.9125
1624.03199	27198.9125
1627.33587	27011.8125
1630.63757	27872.4125
1633.93707	29968.4125
1637.23439	33377.5125
1640.52951	38086.3125
1643.82246	43434.6125
1647.11321	47600.2125
1650.40179	48491.1125
1653.68819	45216.5125
1656.97241	39178.2125
1660.25446	32935.2125
1663.53433	27959.5125
1666.81203	24567.8125
1670.08756	22376.4125
1673.36092	21007.9125
1676.63211	20149.0125
1679.90115	19504.2125
1683.16801	19053.7125
1686.43272	18744.3125
1689.69527	18500.5125
1692.95567	18324.4125
1696.2139	18186.0125
1699.46999	18089.4125
1702.72392	17956.2125
1705.97571	17877.5125
1709.22535	17733.5125
1712.47284	17706.4125
1715.71819	17638.0125
1718.96139	17563.5125
1722.20246	17497.1125
1725.44139	17426.0125
1728.67818	17321.7125
1731.91284	17235.3125
1735.14537	17118.5125
1738.37576	17066.1125
1741.60403	16989.4125
1744.83017	16945.9125
1748.05418	16889.6125
1751.27607	16902.0125
1754.49584	16837.4125
1757.71349	16840.5125
1760.92903	16821.5125
1764.14244	16783.0125
1767.35375	16758.6125
1770.56294	16733.6125
1773.77002	16682.1125
1776.97499	16609.9125
1780.17785	16550.0125
1783.37861	16541.0125
1786.57727	16513.8125
1789.77382	16434.6125
1792.96828	16396.0125
1796.16064	16371.6125
1799.3509	16319.8125
1802.53907	16286.4125
1805.72514	16245.8125
1808.90913	16199.5125
1812.09102	16161.8125
1815.27083	16149.4125
1818.44856	16106.0125
1821.6242	16103.1125
1824.79776	16105.0125
1827.96924	16050.0125
1831.13864	16027.8125
1834.30597	16015.3125
1837.47122	16037.7125
1840.6344	16031.1125
1843.7955	16034.9125
1846.95454	16030.8125
1850.11151	16015.3125
1853.26642	16056.0125
1856.41926	16018.7125
1859.57004	16051.7125
1862.71876	16000.5125
1865.86542	15978.2125
1869.01003	15962.5125
1872.15258	15971.8125
1875.29308	15964.5125
1878.43152	15964.9125
1881.56792	15930.4125
1884.70227	15915.4125
1887.83457	15935.1125
1890.96482	15960.4125
1894.09304	15939.8125
1897.21921	15950.3125
1900.34335	15933.5125
1903.46544	15882.8125
1906.58551	15891.1125
1909.70353	15870.4125
1912.81953	15865.6125
1915.93349	15828.7125
1919.04543	15779.1125
1922.15534	15743.4125
1925.26322	15684.1125
1928.36908	15664.4125
1931.47292	15609.0125
1934.57473	15556.0125
1937.67453	15541.9125
1940.77232	15488.0125
1943.86808	15413.6125
1946.96184	15369.7125
1950.05358	15333.0125
1953.14331	15269.1125
1956.23103	15212.7125
1959.31675	15156.1125
1962.40046	15111.0125
1965.48217	15079.7125
1968.56188	15005.9125
1971.63959	14951.2125
1974.7153	14908.6125
1977.78901	14877.2125
1980.86073	14819.1125
1983.93046	14772.8125
1986.99819	14708.7125
1990.06394	14693.6125
1993.1277	14650.6125
1996.18947	14589.6125
1999.24925	14541.0125
2002.30706	14497.6125
2005.36288	14460.9125
2008.41672	14421.0125
2011.46859	14399.4125
2014.51848	14325.7125
2017.56639	14277.9125
2020.61233	14247.8125
2023.6563	14226.2125
2026.6983	14200.6125
2029.73833	14165.6125
2032.7764	14142.3125
2035.8125	14115.2125
2038.84664	14124.8125
2041.87881	14136.1125
2044.90903	14082.7125
2047.93729	14071.7125
2050.96359	14038.2125
2053.98794	13998.2125
2057.01034	14003.4125
2060.03078	14005.8125
2063.04927	13991.2125
2066.06582	13980.1125
2069.08042	13972.2125
2072.09307	13974.3125
2075.10378	13921.8125
2078.11255	13925.7125
2081.11938	13891.4125
2084.12426	13890.8125
2087.12722	13887.5125
2090.12824	13885.1125
2093.12732	13856.5125
2096.12447	13876.0125
2099.11969	13870.0125
2102.11299	13902.8125
2105.10435	13887.9125
2108.09379	13915.1125
2111.08131	13858.4125
2114.0669	13848.0125
2117.05057	13880.9125
2120.03233	13911.7125
2123.01216	13915.8125
2125.99008	13910.5125
2128.96609	13913.3125
2131.94018	13862.3125
2134.91236	13908.8125
2137.88263	13868.9125
2140.851	13950.7125
2143.81746	13919.1125
2146.78201	13943.7125
2149.74466	13955.3125
2152.7054	13929.9125
2155.66425	13934.8125
2158.6212	13929.8125
2161.57625	13911.6125
2164.52941	13901.4125
2167.48067	13891.9125
2170.43004	13902.8125
2173.37752	13866.7125
2176.32311	13868.2125
2179.26681	13883.3125
2182.20863	13873.8125
2185.14856	13895.4125
2188.08661	13890.4125
2191.02278	13881.7125
2193.95707	13864.1125
2196.88948	13846.0125
2199.82001	13831.9125
2202.74867	13846.1125
2205.67545	13841.3125
2208.60037	13802.0125
2211.52341	13761.3125
2214.44458	13746.0125
2217.36388	13734.9125
2220.28132	13731.8125
2223.1969	13689.5125
2226.11061	13694.5125
2229.02246	13646.0125
2231.93245	13603.4125
2234.84058	13590.9125
2237.74686	13558.9125
2240.65128	13552.7125
2243.55385	13537.8125
2246.45456	13536.2125
2249.35343	13487.9125
2252.25044	13474.2125
2255.14561	13446.9125
2258.03893	13434.9125
2260.93041	13388.5125
2263.82004	13356.9125
2266.70783	13315.4125
2269.59378	13257.2125
2272.4779	13225.8125
2275.36017	13193.0125
2278.24061	13173.6125
2281.11922	13134.7125
2283.996	13144.7125
2286.87094	13112.1125
2289.74405	13079.7125
2292.61534	13043.0125
2295.4848	13055.3125
2298.35243	13088.1125
2301.21824	13041.8125
2304.08223	13053.6125
2306.94439	13029.8125
2309.80474	13028.3125
2312.66327	13036.6125
2315.51999	13008.4125
2318.37489	13024.0125
2321.22797	12989.3125
2324.07925	12964.8125
2326.92871	12959.1125
2329.77637	12953.4125
2332.62222	12951.2125
2335.46626	12939.2125
2338.3085	12941.6125
2341.14893	12932.8125
2343.98756	12931.5125
2346.8244	12927.0125
2349.65943	12936.0125
2352.49267	12944.2125
2355.32411	12929.4125
2358.15376	12910.9125
2360.98161	12921.4125
2363.80768	12893.2125
2366.63195	12856.0125
2369.45444	12887.6125
2372.27514	12880.6125
2375.09405	12842.6125
2377.91118	12831.1125
2380.72652	12803.8125
2383.54009	12780.3125
2386.35187	12759.5125
2389.16188	12704.0125
2391.97011	12691.4125
2394.77657	12676.5125
2397.58125	12646.6125
2400.38416	12622.7125
2403.18529	12618.4125
2405.98466	12598.5125
2408.78226	12583.2125
2411.57809	12558.2125
2414.37216	12560.8125
2417.16446	12544.1125
2419.955	12553.5125
2422.74378	12544.5125
2425.5308	12489.0125
2428.31606	12505.9125
2431.09956	12487.3125
2433.88131	12486.8125
2436.6613	12475.1125
2439.43954	12449.6125
2442.21603	12451.5125
2444.99077	12437.2125
2447.76377	12454.4125
2450.53501	12451.9125
2453.30451	12464.5125
2456.07226	12420.3125
2458.83827	12428.6125
2461.60254	12438.0125
2464.36507	12434.3125
2467.12586	12455.3125
2469.88492	12444.4125
2472.64224	12438.0125
2475.39782	12476.2125
2478.15167	12448.1125
2480.90379	12455.4125
2483.65417	12464.7125
2486.40283	12460.4125
2489.14976	12468.6125
2491.89497	12471.4125
2494.63845	12486.1125
2497.3802	12496.1125
2500.12024	12504.6125
2502.85855	12486.8125
2505.59514	12479.5125
2508.33002	12475.7125
2511.06318	12469.9125
2513.79462	12464.3125
2516.52435	12464.5125
2519.25237	12449.7125
2521.97867	12405.7125
2524.70327	12420.0125
2527.42616	12422.2125
2530.14734	12425.8125
2532.86681	12383.4125
2535.58458	12399.8125
2538.30065	12374.6125
2541.01501	12372.6125
2543.72768	12358.5125
2546.43864	12327.6125
2549.14791	12311.9125
2551.85548	12325.3125
2554.56136	12322.9125
2557.26554	12303.1125
2559.96803	12288.8125
2562.66883	12305.2125
2565.36794	12296.9125
2568.06536	12275.5125
2570.7611	12280.2125
2573.45514	12258.6125
2576.14751	12260.6125
2578.83819	12240.8125
2581.52719	12254.7125
2584.21451	12238.4125
2586.90015	12245.9125
2589.58411	12248.2125
2592.2664	12249.8125
2594.94701	12250.9125
2597.62594	12246.2125
2600.30321	12212.1125
2602.9788	12209.1125
2605.65273	12191.1125
2608.32498	12210.1125
2610.99557	12227.8125
2613.66449	12236.9125
2616.33175	12244.6125
2618.99734	12270.6125
2621.66128	12249.3125
2624.32355	12256.0125
2626.98416	12254.8125
2629.64311	12252.5125
2632.30041	12264.7125
2634.95605	12267.7125
2637.61004	12268.1125
2640.26238	12202.9125
2642.91306	12212.4125
2645.56209	12258.0125
2648.20948	12243.1125
2650.85521	12248.3125
2653.4993	12243.4125
2656.14175	12216.5125
2658.78255	12269.9125
2661.42171	12250.0125
2664.05923	12288.2125
2666.6951	12289.2125
2669.32934	12289.3125
2671.96194	12296.5125
2674.59291	12267.6125
2677.22224	12282.2125
2679.84993	12301.3125
2682.476	12272.7125
2685.10043	12291.8125
2687.72324	12258.8125
2690.34441	12232.6125
2692.96396	12268.8125
2695.58188	12268.2125
2698.19818	12249.4125
2700.81285	12267.4125
2703.4259	12271.5125
2706.03733	12340.4125
2708.64714	12302.9125
2711.25533	12306.1125
2713.86191	12296.6125
2716.46687	12291.6125
2719.07021	12323.3125
2721.67194	12360.5125
2724.27206	12324.9125
2726.87057	12336.0125
2729.46747	12386.1125
2732.06276	12385.9125
2734.65644	12387.4125
2737.24852	12353.8125
2739.83899	12343.0125
2742.42786	12362.1125
2745.01513	12355.7125
2747.60079	12365.0125
2750.18486	12342.3125
2752.76733	12375.2125
2755.3482	12354.8125
2757.92747	12371.5125
2760.50515	12381.3125
2763.08123	12410.2125
2765.65573	12376.9125
2768.22863	12378.4125
2770.79994	12386.2125
2773.36967	12382.1125
2775.9378	12379.6125
2778.50435	12399.5125
2781.06932	12376.5125
2783.6327	12378.9125
2786.1945	12379.1125
2788.75471	12346.3125
2791.31335	12364.6125
2793.87041	12353.8125
2796.42589	12345.1125
2798.97979	12329.2125
2801.53212	12309.1125
2804.08288	12313.7125
2806.63206	12291.3125
2809.17967	12272.8125
2811.72571	12230.2125
2814.27018	12237.4125
2816.81308	12212.1125
2819.35442	12184.9125
2821.89419	12154.7125
2824.43239	12122.2125
2826.96904	12113.3125
2829.50412	12114.4125
2832.03763	12099.7125
2834.56959	12109.0125
2837.1	12112.0125
2839.62884	12087.4125
2842.15613	12084.4125
2844.68186	12137.8125
2847.20604	12134.2125
2849.72867	12168.6125
2852.24974	12152.1125
2854.76927	12159.7125
2857.28724	12145.6125
2859.80367	12103.4125
2862.31855	12117.4125
2864.83189	12098.3125
2867.34368	12055.3125
2869.85393	12098.8125
2872.36264	12076.1125
2874.8698	12073.3125
2877.37543	12093.6125
2879.87952	12058.4125
2882.38207	12097.9125
2884.88308	12095.9125
2887.38256	12099.7125
2889.88051	12094.7125
2892.37692	12120.5125
2894.8718	12121.3125
2897.36515	12139.2125
2899.85698	12122.3125
2902.34727	12177.1125
2904.83604	12159.3125
2907.32328	12214.6125
2909.809	12175.1125
2912.29319	12197.4125
2914.77587	12198.1125
2917.25702	12189.7125
2919.73665	12178.7125
2922.21476	12193.7125
2924.69136	12194.1125
2927.16644	12224.0125
2929.64	12204.0125
2932.11205	12202.3125
2934.58258	12163.9125
2937.05161	12172.1125
2939.51912	12174.7125
2941.98513	12138.0125
2944.44962	12097.1125
2946.91261	12056.4125
2949.37409	12069.8125
2951.83407	12005.7125
2954.29254	12025.2125
2956.74951	11988.2125
2959.20498	11999.9125
2961.65895	11947.5125
2964.11142	11932.9125
2966.56239	11898.1125
2969.01186	11881.7125
2971.45984	11846.4125
2973.90632	11826.3125
2976.35131	11772.5125
2978.7948	11739.1125
2981.23681	11714.4125
2983.67732	11711.4125
2986.11635	11652.7125
2988.55388	11644.6125
2990.98993	11619.4125
2993.4245	11590.5125
2995.85758	11554.1125
2998.28917	11547.0125
3000.71928	11508.2125
3003.14791	11483.9125
3005.57506	11486.9125
3008.00073	11445.6125
3010.42493	11411.6125
3012.84764	11386.1125
3015.26888	11384.1125
3017.68865	11376.8125
3020.10694	11340.2125
3022.52376	11313.2125
3024.9391	11296.7125
3027.35298	11274.7125
3029.76539	11258.2125
3032.17632	11272.2125
3034.5858	11240.3125
3036.9938	11241.5125
3039.40034	11258.9125
3041.80542	11217.1125
3044.20903	11210.3125
3046.61118	11206.3125
3049.01187	11174.3125
3051.4111	11152.6125
3053.80888	11114.7125
3056.20519	11087.3125
3058.60005	11074.4125
3060.99345	11053.5125
3063.3854	11020.4125
3065.7759	11008.2125
3068.16494	10975.1125
3070.55254	10908.5125
3072.93868	10885.3125
3075.32338	10862.9125
3077.70662	10816.5125
3080.08842	10777.1125
3082.46878	10777.8125
3084.84769	10766.5125
3087.22515	10777.0125
3089.60118	10757.4125
3091.97576	10734.0125
3094.3489	10737.4125
3096.72061	10728.6125
3099.09087	10739.4125
3101.4597	10706.1125
3103.82709	10717.3125
3106.19305	10680.9125
3108.55757	10664.9125
3110.92066	10627.7125
3113.28232	10608.6125
3115.64255	10561.3125
3118.00134	10524.2125
3120.35871	10508.3125
3122.71466	10473.3125
3125.06917	10496.7125
3127.42226	10454.1125
3129.77393	10473.9125
3132.12417	10427.5125
3134.47299	10452.4125
3136.82039	10422.9125
3139.16636	10416.3125
3141.51092	10405.4125
3143.85406	10387.4125
3146.19579	10397.1125
3148.53609	10427.5125
3150.87499	10413.6125
3153.21246	10399.7125
3155.54853	10417.9125
3157.88318	10389.5125
3160.21642	10397.2125
3162.54826	10389.8125
3164.87868	10385.4125
3167.2077	10376.1125
3169.5353	10380.2125
3171.86151	10360.2125
3174.18631	10377.7125
3176.5097	10349.7125
3178.83169	10349.2125
3181.15228	10347.3125
3183.47147	10306.4125
3185.78926	10329.5125
3188.10565	10324.1125
3190.42065	10343.2125
3192.73424	10312.4125
3195.04645	10303.6125
3197.35725	10280.9125
3199.66667	10262.0125
3201.97469	10293.7125
3204.28132	10290.3125
3206.58656	10292.0125
3208.8904	10285.5125
3211.19287	10287.4125
3213.49394	10289.5125
3215.79363	10262.7125
3218.09193	10278.5125
3220.38884	10272.3125
3222.68438	10283.7125
3224.97853	10270.0125
3227.2713	10256.2125
3229.56269	10229.3125
3231.8527	10230.2125
3234.14133	10239.2125
3236.42858	10207.8125
3238.71446	10195.6125
3240.99896	10184.5125
3243.28209	10174.0125
3245.56384	10165.6125
3247.84423	10168.3125
3250.12324	10141.5125
3252.40088	10124.3125
3254.67715	10121.5125
3256.95205	10105.5125
3259.22558	10109.9125
3261.49775	10080.9125
3263.76855	10045.8125
3266.03799	10014.6125
3268.30606	9993.9125
3270.57277	9973.9125
3272.83812	9965.8125
3275.10211	9916.8125
3277.36474	9936.6125
3279.62601	9926.7125
3281.88593	9896.4125
3284.14448	9940.7125
3286.40168	9917.4125
3288.65753	9945.8125
3290.91202	9903.3125
3293.16516	9850.2125
3295.41695	9836.3125
3297.66738	9797.8125
3299.91647	9739.0125
3302.16421	9650.2125
3304.4106	9620.2125
3306.65564	9568.5125
3308.89933	9534.8125
3311.14169	9462.9125
3313.38269	9394.3125
3315.62236	9338.6125
3317.86068	9257.9125
3320.09766	9159.5125
3322.3333	9095.2125
3324.5676	9077.6125
3326.80056	8914.2125
3329.03219	8888.9125
3331.26248	1.6125
3333.49143	-0.4875
3335.71905	-1.3875
