Data from AgNPs_FTO_APTES_UA_2uM_CRN_200uM_R6G_10uM_NaF_0.1M_Addition_RamanShift__17__16-38-45-371.txt Node

Date: Wed Feb 02 16:38:45 GMT 2022
User: TCL
Spectrometer: QEP01345
Trigger mode: 4
Integration Time (sec): 7.000000E0
Scans to average: 10
Electric dark correction enabled: true
Nonlinearity correction enabled: false
Boxcar width: 0
XAxis mode: Raman Shifts
Number of Pixels in Spectrum: 1044
>>>>>Begin Spectral Data<<<<<
46.04893	-0.775
50.45542	1.625
54.85868	-1.075
59.25871	-1.375
63.6555	66.025
68.04907	68.625
72.43941	74.325
76.82654	80.925
81.21044	79.225
85.59113	87.225
89.96862	89.625
94.34289	91.425
98.71396	95.525
103.08183	100.425
107.4465	101.725
111.80798	104.825
116.16626	104.125
120.52136	108.025
124.87327	110.825
129.222	113.125
133.56755	122.725
137.90993	131.125
142.24913	142.825
146.58517	164.925
150.91804	186.825
155.24774	215.325
159.57429	270.125
163.89768	342.625
168.21792	448.125
172.53501	615.325
176.84895	848.925
181.15975	1184.925
185.46741	1666.225
189.77193	2290.425
194.07331	3052.525
198.37157	3946.425
202.6667	4864.325
206.9587	5764.825
211.24758	6664.425
215.53334	7567.725
219.81599	8502.825
224.09553	9555.325
228.37195	10696.825
232.64527	11945.925
236.91549	13233.425
241.18261	14565.625
245.44663	15842.525
249.70755	16988.025
253.96539	17977.525
258.22014	18853.225
262.4718	19563.825
266.72039	20075.025
270.96589	20416.825
275.20832	20527.925
279.44768	20587.425
283.68397	20541.425
287.91719	20535.825
292.14735	20567.125
296.37445	20682.225
300.59849	20770.225
304.81948	20747.325
309.03742	20531.925
313.25231	20160.425
317.46415	19550.625
321.67296	18878.525
325.87872	18331.525
330.08145	18012.925
334.28114	17938.125
338.47781	17990.025
342.67145	18100.625
346.86207	18320.225
351.04966	18579.925
355.23424	18795.725
359.4158	19019.925
363.59435	19186.625
367.76989	19254.325
371.94243	19302.725
376.11196	19425.225
380.27849	19542.425
384.44203	19643.625
388.60257	19855.325
392.76012	20117.125
396.91468	20431.325
401.06626	20733.325
405.21485	20893.925
409.36047	20822.325
413.50311	20614.325
417.64277	20430.125
421.77947	20472.025
425.9132	20579.925
430.04396	20752.225
434.17176	20930.725
438.2966	21122.425
442.41849	21438.225
446.53742	21980.725
450.6534	22709.525
454.76644	23242.625
458.87653	23526.225
462.98368	23542.525
467.08789	23386.825
471.18916	23241.525
475.2875	23248.125
479.38291	23420.725
483.4754	23455.725
487.56496	23098.525
491.6516	22433.225
495.73531	21727.725
499.81612	21277.225
503.89401	21212.125
507.96899	21211.325
512.04106	21074.225
516.11023	20861.425
520.1765	20508.325
524.23987	20171.425
528.30034	19956.025
532.35792	19736.425
536.41261	19575.225
540.46441	19463.925
544.51333	19591.625
548.55936	20010.325
552.60252	20552.925
556.64279	21202.625
560.6802	21779.725
564.71473	22165.325
568.7464	22733.325
572.7752	23465.925
576.80114	24093.925
580.82422	24475.625
584.84444	24765.125
588.86181	24954.025
592.87633	25121.725
596.888	24995.125
600.89682	24686.925
604.9028	24805.925
608.90594	25778.725
612.90624	26470.125
616.90371	24634.625
620.89834	21196.625
624.89015	19678.225
628.87913	19594.425
632.86528	19824.125
636.84862	19946.825
640.82913	19694.225
644.80683	19193.425
648.78172	18783.125
652.75379	18574.825
656.72306	18644.025
660.68952	18803.825
664.65319	18721.525
668.61405	18473.225
672.57211	18422.025
676.52738	18467.125
680.47986	18564.325
684.42955	18504.825
688.37646	18397.525
692.32058	18434.425
696.26192	18566.625
700.20048	18752.525
704.13626	18933.825
708.06928	19007.825
711.99952	18992.325
715.927	18903.825
719.85171	18904.125
723.77365	18857.225
727.69284	18638.625
731.60928	18454.525
735.52295	18365.025
739.43388	18304.525
743.34206	18351.625
747.24749	18408.425
751.15017	18602.425
755.05012	19004.625
758.94733	19640.425
762.8418	20778.025
766.73354	22212.525
770.62254	23441.225
774.50882	23410.225
778.39237	22169.725
782.27321	20540.125
786.15132	19262.125
790.02671	18527.325
793.89938	18143.825
797.76935	18009.725
801.6366	17995.625
805.50115	18030.925
809.36299	17908.125
813.22213	17778.725
817.07857	17724.125
820.93231	17740.025
824.78336	17587.625
828.63172	17451.925
832.47738	17334.025
836.32036	17314.325
840.16066	17323.325
843.99827	17401.325
847.8332	17260.525
851.66546	17202.025
855.49504	17163.525
859.32195	17152.725
863.1462	17117.825
866.96777	17072.925
870.78668	17024.925
874.60293	17020.525
878.41652	16993.125
882.22745	17060.125
886.03573	17029.525
889.84136	17104.625
893.64433	17054.825
897.44466	16988.625
901.24235	16935.625
905.0374	16835.325
908.8298	16799.325
912.61957	16868.325
916.40671	17096.225
920.19121	17373.125
923.97308	17552.025
927.75233	17407.525
931.52895	17179.825
935.30295	16894.525
939.07433	16582.925
942.84309	16280.725
946.60924	16113.125
950.37278	16066.025
954.13371	16034.925
957.89203	16099.225
961.64774	16110.725
965.40086	16072.925
969.15137	15998.925
972.89929	15838.825
976.64461	15754.325
980.38733	15663.225
984.12747	15681.125
987.86502	15717.125
991.59999	15837.025
995.33237	16036.625
999.06217	16362.525
1002.78939	16755.925
1006.51404	16985.025
1010.23611	17197.425
1013.95561	17365.425
1017.67255	17400.825
1021.38692	17277.725
1025.09872	17027.325
1028.80796	16853.225
1032.51465	16931.925
1036.21877	17089.625
1039.92035	17166.525
1043.61937	17174.425
1047.31584	17104.725
1051.00976	17013.125
1054.70114	17064.025
1058.38998	17233.025
1062.07627	17500.125
1065.76003	17767.925
1069.44126	17974.125
1073.11995	18176.625
1076.79611	18345.825
1080.46974	18365.325
1084.14085	18409.625
1087.80943	18556.825
1091.47549	18812.725
1095.13903	18964.825
1098.80005	18860.925
1102.45857	18380.725
1106.11456	17968.625
1109.76805	17720.425
1113.41903	17757.425
1117.06751	17820.925
1120.71348	18046.825
1124.35696	18224.525
1127.99793	18532.525
1131.63641	18760.625
1135.2724	18697.625
1138.90589	18679.125
1142.5369	18730.925
1146.16542	18957.325
1149.79145	19297.325
1153.415	19733.425
1157.03607	20280.825
1160.65467	20954.425
1164.27079	22059.425
1167.88443	23401.025
1171.49561	24902.925
1175.10432	26750.325
1178.71056	28986.125
1182.31434	31112.725
1185.91565	32243.625
1189.51451	32350.325
1193.11091	31899.325
1196.70485	31056.725
1200.29634	29873.625
1203.88538	28923.725
1207.47197	28346.925
1211.05612	28006.125
1214.63782	27433.925
1218.21708	26685.425
1221.79391	25767.325
1225.36829	25068.425
1228.94024	24474.725
1232.50976	23903.225
1236.07685	23512.925
1239.6415	23333.025
1243.20374	23337.925
1246.76355	23481.425
1250.32093	23804.825
1253.8759	24338.625
1257.42845	25019.625
1260.97859	25730.625
1264.52631	26488.825
1268.07163	27149.625
1271.61453	27931.225
1275.15503	28825.825
1278.69312	29895.825
1282.22882	30890.625
1285.76211	32100.325
1289.29301	33663.425
1292.82151	35651.825
1296.34761	38070.425
1299.87133	40682.425
1303.39266	43174.025
1306.9116	45218.725
1310.42815	46829.525
1313.94233	47862.725
1317.45412	48158.525
1320.96354	48160.925
1324.47058	48238.625
1327.97525	48361.625
1331.47754	48449.025
1334.97747	48385.125
1338.47502	48181.525
1341.97022	47580.725
1345.46305	46587.625
1348.95352	45147.925
1352.44163	43685.225
1355.92738	42770.725
1359.41078	42676.325
1362.89183	42814.925
1366.37053	41974.525
1369.84688	39238.625
1373.32088	35997.725
1376.79254	33682.725
1380.26186	33089.725
1383.72883	33628.925
1387.19347	34300.725
1390.65578	34755.825
1394.11575	35256.925
1397.57339	36089.525
1401.0287	37058.525
1404.48168	37788.325
1407.93234	37585.225
1411.38068	36432.525
1414.82669	34520.325
1418.27039	32320.725
1421.71177	30195.825
1425.15083	28506.125
1428.58758	27530.825
1432.02203	27491.525
1435.45416	28223.925
1438.88399	29315.925
1442.31151	30449.925
1445.73673	31324.525
1449.15965	32203.225
1452.58027	33061.325
1455.9986	33550.725
1459.41463	33932.925
1462.82837	34372.525
1466.23982	34792.725
1469.64898	35063.725
1473.05586	35088.525
1476.46045	34782.225
1479.86276	34159.925
1483.26279	33376.025
1486.66054	32713.525
1490.05602	32404.125
1493.44922	32322.225
1496.84016	32306.025
1500.22882	32629.425
1503.61521	33228.425
1506.99934	34021.025
1510.38121	34774.025
1513.76081	35109.525
1517.13816	34860.525
1520.51324	34213.125
1523.88607	33773.325
1527.25665	33717.925
1530.62498	33913.025
1533.99105	34116.825
1537.35488	33910.725
1540.71647	33349.625
1544.07581	32464.825
1547.4329	31440.325
1550.78776	30512.225
1554.14038	29834.925
1557.49077	29568.225
1560.83892	29350.025
1564.18484	29336.225
1567.52853	29377.325
1570.86999	29595.225
1574.20922	30251.325
1577.54624	31044.325
1580.88103	31798.225
1584.2136	32614.225
1587.54395	33926.225
1590.87208	35551.825
1594.19801	37401.725
1597.52172	39004.825
1600.84321	39257.725
1604.16251	37310.225
1607.47959	34266.925
1610.79447	30830.925
1614.10715	27796.725
1617.41763	25244.625
1620.7259	23526.025
1624.03199	22505.625
1627.33587	22406.125
1630.63757	23130.025
1633.93707	24852.625
1637.23439	27761.925
1640.52951	31758.025
1643.82246	36309.325
1647.11321	39862.625
1650.40179	40546.925
1653.68819	37741.425
1656.97241	32667.525
1660.25446	27515.825
1663.53433	23362.225
1666.81203	20493.925
1670.08756	18639.725
1673.36092	17489.125
1676.63211	16719.125
1679.90115	16181.525
1683.16801	15783.325
1686.43272	15498.525
1689.69527	15284.525
1692.95567	15141.625
1696.2139	15043.925
1699.46999	14929.525
1702.72392	14848.825
1705.97571	14761.325
1709.22535	14632.125
1712.47284	14568.325
1715.71819	14530.225
1718.96139	14432.425
1722.20246	14369.425
1725.44139	14299.625
1728.67818	14239.825
1731.91284	14120.225
1735.14537	14048.725
1738.37576	13980.525
1741.60403	13909.725
1744.83017	13863.825
1748.05418	13868.225
1751.27607	13822.725
1754.49584	13827.825
1757.71349	13813.325
1760.92903	13778.625
1764.14244	13747.425
1767.35375	13716.625
1770.56294	13659.325
1773.77002	13619.625
1776.97499	13537.725
1780.17785	13528.325
1783.37861	13494.025
1786.57727	13442.725
1789.77382	13398.025
1792.96828	13331.325
1796.16064	13290.825
1799.3509	13265.425
1802.53907	13240.325
1805.72514	13216.625
1808.90913	13168.625
1812.09102	13132.325
1815.27083	13118.825
1818.44856	13064.125
1821.6242	13074.725
1824.79776	13065.525
1827.96924	13023.425
1831.13864	13005.125
1834.30597	13020.025
1837.47122	13031.025
1840.6344	13019.525
1843.7955	13006.225
1846.95454	12978.725
1850.11151	12993.025
1853.26642	12981.425
1856.41926	12967.225
1859.57004	12947.525
1862.71876	12934.225
1865.86542	12926.025
1869.01003	12911.625
1872.15258	12895.525
1875.29308	12890.825
1878.43152	12867.625
1881.56792	12873.725
1884.70227	12813.025
1887.83457	12826.925
1890.96482	12816.125
1894.09304	12799.425
1897.21921	12791.925
1900.34335	12770.325
1903.46544	12740.825
1906.58551	12730.525
1909.70353	12699.525
1912.81953	12669.025
1915.93349	12663.225
1919.04543	12605.325
1922.15534	12633.225
1925.26322	12545.825
1928.36908	12510.325
1931.47292	12487.325
1934.57473	12443.725
1937.67453	12407.525
1940.77232	12365.125
1943.86808	12357.325
1946.96184	12303.725
1950.05358	12269.325
1953.14331	12233.225
1956.23103	12170.225
1959.31675	12136.325
1962.40046	12098.825
1965.48217	12045.125
1968.56188	12025.125
1971.63959	11971.025
1974.7153	11939.525
1977.78901	11905.225
1980.86073	11863.025
1983.93046	11830.325
1986.99819	11798.025
1990.06394	11752.125
1993.1277	11720.225
1996.18947	11666.725
1999.24925	11662.825
2002.30706	11582.125
2005.36288	11549.125
2008.41672	11523.925
2011.46859	11480.225
2014.51848	11463.325
2017.56639	11433.625
2020.61233	11367.425
2023.6563	11378.125
2026.6983	11353.425
2029.73833	11327.225
2032.7764	11287.825
2035.8125	11263.325
2038.84664	11237.125
2041.87881	11248.225
2044.90903	11219.925
2047.93729	11197.325
2050.96359	11193.925
2053.98794	11190.225
2057.01034	11180.725
2060.03078	11159.525
2063.04927	11119.025
2066.06582	11128.525
2069.08042	11100.325
2072.09307	11108.225
2075.10378	11101.725
2078.11255	11087.225
2081.11938	11072.825
2084.12426	11055.525
2087.12722	11046.425
2090.12824	11034.725
2093.12732	11045.325
2096.12447	11051.125
2099.11969	11035.125
2102.11299	11063.325
2105.10435	11076.125
2108.09379	11027.925
2111.08131	11050.425
2114.0669	11062.225
2117.05057	11049.225
2120.03233	11066.725
2123.01216	11074.425
2125.99008	11062.425
2128.96609	11058.025
2131.94018	11059.825
2134.91236	11066.325
2137.88263	11072.725
2140.851	11062.725
2143.81746	11094.125
2146.78201	11069.125
2149.74466	11079.925
2152.7054	11075.325
2155.66425	11059.425
2158.6212	11059.025
2161.57625	11049.825
2164.52941	11048.925
2167.48067	11038.025
2170.43004	11030.425
2173.37752	11012.125
2176.32311	10996.025
2179.26681	10996.325
2182.20863	11010.625
2185.14856	10995.625
2188.08661	10992.625
2191.02278	10980.825
2193.95707	10965.825
2196.88948	10951.125
2199.82001	10965.825
2202.74867	10952.525
2205.67545	10938.325
2208.60037	10943.925
2211.52341	10886.325
2214.44458	10887.125
2217.36388	10863.225
2220.28132	10840.525
2223.1969	10830.625
2226.11061	10798.025
2229.02246	10774.525
2231.93245	10766.725
2234.84058	10736.625
2237.74686	10698.525
2240.65128	10714.325
2243.55385	10678.325
2246.45456	10685.925
2249.35343	10667.425
2252.25044	10612.325
2255.14561	10585.725
2258.03893	10606.125
2260.93041	10566.425
2263.82004	10528.225
2266.70783	10519.725
2269.59378	10475.925
2272.4779	10449.825
2275.36017	10384.625
2278.24061	10375.425
2281.11922	10384.725
2283.996	10328.025
2286.87094	10329.025
2289.74405	10291.925
2292.61534	10310.825
2295.4848	10288.225
2298.35243	10288.725
2301.21824	10280.725
2304.08223	10282.825
2306.94439	10281.325
2309.80474	10257.025
2312.66327	10252.925
2315.51999	10253.725
2318.37489	10242.425
2321.22797	10220.825
2324.07925	10233.625
2326.92871	10207.425
2329.77637	10186.625
2332.62222	10187.125
2335.46626	10161.825
2338.3085	10159.525
2341.14893	10157.825
2343.98756	10153.425
2346.8244	10143.925
2349.65943	10169.925
2352.49267	10133.825
2355.32411	10140.025
2358.15376	10149.225
2360.98161	10110.225
2363.80768	10112.325
2366.63195	10119.625
2369.45444	10075.825
2372.27514	10100.225
2375.09405	10084.925
2377.91118	10057.525
2380.72652	10067.825
2383.54009	9999.025
2386.35187	9994.525
2389.16188	9974.125
2391.97011	9957.525
2394.77657	9922.125
2397.58125	9942.725
2400.38416	9885.225
2403.18529	9884.625
2405.98466	9856.225
2408.78226	9863.225
2411.57809	9854.425
2414.37216	9837.925
2417.16446	9824.225
2419.955	9845.525
2422.74378	9820.425
2425.5308	9800.825
2428.31606	9777.625
2431.09956	9793.325
2433.88131	9776.125
2436.6613	9787.225
2439.43954	9777.825
2442.21603	9771.725
2444.99077	9754.025
2447.76377	9752.925
2450.53501	9761.025
2453.30451	9758.925
2456.07226	9736.125
2458.83827	9750.525
2461.60254	9743.125
2464.36507	9734.525
2467.12586	9744.125
2469.88492	9738.725
2472.64224	9711.425
2475.39782	9737.125
2478.15167	9756.225
2480.90379	9711.625
2483.65417	9742.425
2486.40283	9724.525
2489.14976	9740.125
2491.89497	9749.225
2494.63845	9751.725
2497.3802	9733.325
2500.12024	9724.625
2502.85855	9723.325
2505.59514	9732.825
2508.33002	9713.625
2511.06318	9727.225
2513.79462	9723.925
2516.52435	9721.925
2519.25237	9698.725
2521.97867	9696.025
2524.70327	9682.925
2527.42616	9681.525
2530.14734	9688.925
2532.86681	9665.725
2535.58458	9679.025
2538.30065	9632.225
2541.01501	9637.725
2543.72768	9635.925
2546.43864	9622.625
2549.14791	9577.725
2551.85548	9580.025
2554.56136	9597.625
2557.26554	9589.025
2559.96803	9590.325
2562.66883	9551.025
2565.36794	9586.425
2568.06536	9546.125
2570.7611	9572.325
2573.45514	9542.625
2576.14751	9541.225
2578.83819	9505.625
2581.52719	9523.725
2584.21451	9516.225
2586.90015	9522.925
2589.58411	9507.225
2592.2664	9524.925
2594.94701	9491.325
2597.62594	9517.025
2600.30321	9482.725
2602.9788	9463.625
2605.65273	9466.525
2608.32498	9494.925
2610.99557	9486.725
2613.66449	9501.525
2616.33175	9475.925
2618.99734	9514.625
2621.66128	9506.325
2624.32355	9471.725
2626.98416	9474.425
2629.64311	9466.425
2632.30041	9506.325
2634.95605	9480.425
2637.61004	9463.025
2640.26238	9460.125
2642.91306	9456.525
2645.56209	9460.925
2648.20948	9470.725
2650.85521	9457.625
2653.4993	9453.725
2656.14175	9449.025
2658.78255	9478.725
2661.42171	9478.925
2664.05923	9491.025
2666.6951	9488.725
2669.32934	9517.125
2671.96194	9478.025
2674.59291	9483.125
2677.22224	9505.625
2679.84993	9511.825
2682.476	9475.525
2685.10043	9475.725
2687.72324	9457.625
2690.34441	9465.825
2692.96396	9451.425
2695.58188	9471.025
2698.19818	9457.825
2700.81285	9471.825
2703.4259	9491.325
2706.03733	9552.425
2708.64714	9506.225
2711.25533	9487.925
2713.86191	9509.125
2716.46687	9534.225
2719.07021	9515.925
2721.67194	9540.325
2724.27206	9518.425
2726.87057	9539.925
2729.46747	9539.125
2732.06276	9563.925
2734.65644	9540.625
2737.24852	9538.925
2739.83899	9529.825
2742.42786	9540.925
2745.01513	9526.825
2747.60079	9519.825
2750.18486	9520.225
2752.76733	9511.025
2755.3482	9524.825
2757.92747	9552.125
2760.50515	9550.825
2763.08123	9554.725
2765.65573	9553.325
2768.22863	9546.425
2770.79994	9513.525
2773.36967	9524.225
2775.9378	9526.425
2778.50435	9548.925
2781.06932	9502.425
2783.6327	9517.425
2786.1945	9524.125
2788.75471	9517.825
2791.31335	9507.425
2793.87041	9500.525
2796.42589	9478.525
2798.97979	9497.925
2801.53212	9456.325
2804.08288	9447.925
2806.63206	9426.725
2809.17967	9421.925
2811.72571	9390.125
2814.27018	9400.225
2816.81308	9371.325
2819.35442	9340.925
2821.89419	9328.425
2824.43239	9317.525
2826.96904	9303.025
2829.50412	9306.725
2832.03763	9288.325
2834.56959	9309.625
2837.1	9288.025
2839.62884	9304.625
2842.15613	9292.825
2844.68186	9317.525
2847.20604	9373.225
2849.72867	9367.325
2852.24974	9364.725
2854.76927	9364.025
2857.28724	9358.225
2859.80367	9336.525
2862.31855	9311.325
2864.83189	9301.125
2867.34368	9310.625
2869.85393	9330.025
2872.36264	9290.725
2874.8698	9297.425
2877.37543	9287.825
2879.87952	9292.925
2882.38207	9317.125
2884.88308	9314.125
2887.38256	9301.825
2889.88051	9297.625
2892.37692	9315.125
2894.8718	9314.225
2897.36515	9310.325
2899.85698	9326.325
2902.34727	9335.525
2904.83604	9361.225
2907.32328	9381.425
2909.809	9362.225
2912.29319	9363.925
2914.77587	9377.725
2917.25702	9361.325
2919.73665	9363.525
2922.21476	9358.425
2924.69136	9369.525
2927.16644	9383.625
2929.64	9373.225
2932.11205	9381.825
2934.58258	9355.625
2937.05161	9343.925
2939.51912	9371.225
2941.98513	9343.125
2944.44962	9283.825
2946.91261	9258.725
2949.37409	9257.325
2951.83407	9229.725
2954.29254	9223.525
2956.74951	9202.925
2959.20498	9200.625
2961.65895	9188.125
2964.11142	9164.725
2966.56239	9135.825
2969.01186	9117.725
2971.45984	9100.025
2973.90632	9098.925
2976.35131	9019.525
2978.7948	9003.825
2981.23681	9013.025
2983.67732	8955.225
2986.11635	8946.425
2988.55388	8946.425
2990.98993	8906.425
2993.4245	8897.425
2995.85758	8854.825
2998.28917	8853.925
3000.71928	8839.425
3003.14791	8818.925
3005.57506	8809.925
3008.00073	8770.525
3010.42493	8761.125
3012.84764	8731.825
3015.26888	8736.925
3017.68865	8727.925
3020.10694	8702.525
3022.52376	8663.325
3024.9391	8650.625
3027.35298	8669.825
3029.76539	8636.825
3032.17632	8629.925
3034.5858	8643.825
3036.9938	8614.025
3039.40034	8624.225
3041.80542	8613.225
3044.20903	8586.425
3046.61118	8594.625
3049.01187	8585.425
3051.4111	8561.925
3053.80888	8518.825
3056.20519	8519.925
3058.60005	8481.525
3060.99345	8474.525
3063.3854	8478.925
3065.7759	8431.925
3068.16494	8407.425
3070.55254	8364.625
3072.93868	8370.325
3075.32338	8339.125
3077.70662	8315.425
3080.08842	8281.725
3082.46878	8280.925
3084.84769	8264.025
3087.22515	8285.125
3089.60118	8258.725
3091.97576	8256.225
3094.3489	8255.825
3096.72061	8254.525
3099.09087	8256.225
3101.4597	8232.325
3103.82709	8215.925
3106.19305	8219.325
3108.55757	8195.225
3110.92066	8167.325
3113.28232	8144.825
3115.64255	8123.125
3118.00134	8083.825
3120.35871	8087.525
3122.71466	8058.825
3125.06917	8067.225
3127.42226	8050.125
3129.77393	8041.325
3132.12417	8041.525
3134.47299	8029.825
3136.82039	8019.025
3139.16636	8003.425
3141.51092	8015.725
3143.85406	8017.425
3146.19579	8024.825
3148.53609	8023.925
3150.87499	8032.825
3153.21246	8053.925
3155.54853	8049.325
3157.88318	8025.425
3160.21642	8048.325
3162.54826	8020.225
3164.87868	8005.825
3167.2077	8025.125
3169.5353	8031.625
3171.86151	8034.525
3174.18631	8011.425
3176.5097	8025.025
3178.83169	8009.025
3181.15228	8001.325
3183.47147	8006.525
3185.78926	7993.525
3188.10565	7985.925
3190.42065	7984.425
3192.73424	7968.825
3195.04645	7969.025
3197.35725	7971.925
3199.66667	7956.825
3201.97469	7960.625
3204.28132	7975.625
3206.58656	7954.325
3208.8904	7958.425
3211.19287	7941.525
3213.49394	7970.625
3215.79363	7956.125
3218.09193	7950.825
3220.38884	7991.825
3222.68438	7991.525
3224.97853	7968.225
3227.2713	7939.225
3229.56269	7934.525
3231.8527	7938.325
3234.14133	7931.525
3236.42858	7912.925
3238.71446	7911.525
3240.99896	7898.725
3243.28209	7879.925
3245.56384	7880.925
3247.84423	7877.625
3250.12324	7865.525
3252.40088	7863.025
3254.67715	7857.425
3256.95205	7819.125
3259.22558	7830.325
3261.49775	7805.925
3263.76855	7775.725
3266.03799	7755.725
3268.30606	7740.225
3270.57277	7738.325
3272.83812	7695.225
3275.10211	7706.425
3277.36474	7696.025
3279.62601	7698.225
3281.88593	7683.925
3284.14448	7709.825
3286.40168	7716.525
3288.65753	7690.825
3290.91202	7678.225
3293.16516	7651.325
3295.41695	7632.325
3297.66738	7578.825
3299.91647	7528.925
3302.16421	7469.425
3304.4106	7458.825
3306.65564	7428.625
3308.89933	7379.625
3311.14169	7356.725
3313.38269	7281.125
3315.62236	7244.925
3317.86068	7190.725
3320.09766	7112.125
3322.3333	7046.425
3324.5676	7031.225
3326.80056	6938.825
3329.03219	6907.925
3331.26248	1.725
3333.49143	0.525
3335.71905	-0.875
