Data from AgNPs_FTO_APTES_UA_2uM_CRN_2uM_R6G_10uM_NaF_0.1M_Addition_RamanShift__18__12-19-45-068.txt Node

Date: Wed Feb 02 12:19:45 GMT 2022
User: TCL
Spectrometer: QEP01345
Trigger mode: 4
Integration Time (sec): 7.000000E0
Scans to average: 10
Electric dark correction enabled: true
Nonlinearity correction enabled: false
Boxcar width: 0
XAxis mode: Raman Shifts
Number of Pixels in Spectrum: 1044
>>>>>Begin Spectral Data<<<<<
46.04893	-0.075
50.45542	-0.975
54.85868	-0.875
59.25871	-0.275
63.6555	95.525
68.04907	97.925
72.43941	100.125
76.82654	113.025
81.21044	111.325
85.59113	115.325
89.96862	117.925
94.34289	121.725
98.71396	129.225
103.08183	131.225
107.4465	133.725
111.80798	140.125
116.16626	146.825
120.52136	153.625
124.87327	161.225
129.222	169.425
133.56755	183.725
137.90993	200.325
142.24913	229.725
146.58517	258.125
150.91804	304.625
155.24774	373.025
159.57429	470.125
163.89768	607.925
168.21792	820.325
172.53501	1130.125
176.84895	1577.625
181.15975	2233.925
185.46741	3129.925
189.77193	4309.525
194.07331	5765.825
198.37157	7404.825
202.6667	9139.825
206.9587	10859.425
211.24758	12574.425
215.53334	14282.225
219.81599	16138.525
224.09553	18236.225
228.37195	20568.825
232.64527	23106.425
236.91549	25745.925
241.18261	28284.925
245.44663	30512.625
249.70755	32516.725
253.96539	34235.525
258.22014	35764.525
262.4718	36991.425
266.72039	37878.125
270.96589	38350.225
275.20832	38408.225
279.44768	38255.225
283.68397	37926.825
287.91719	37764.325
292.14735	37764.725
296.37445	37900.125
300.59849	38230.025
304.81948	38481.725
309.03742	38550.125
313.25231	38114.425
317.46415	37065.825
321.67296	35607.425
325.87872	34393.825
330.08145	33706.425
334.28114	33487.025
338.47781	33676.525
342.67145	34049.625
346.86207	34660.925
351.04966	35420.525
355.23424	36312.025
359.4158	37016.825
363.59435	37440.725
367.76989	37723.425
371.94243	37899.325
376.11196	37979.725
380.27849	38058.225
384.44203	38219.325
388.60257	38440.125
392.76012	38896.925
396.91468	39446.925
401.06626	40142.925
405.21485	40618.825
409.36047	40263.825
413.50311	39462.625
417.64277	38772.125
421.77947	38670.325
425.9132	38665.725
430.04396	38892.425
434.17176	39098.925
438.2966	39375.525
442.41849	40045.325
446.53742	41275.925
450.6534	42668.725
454.76644	43676.625
458.87653	44042.925
462.98368	43823.325
467.08789	43225.925
471.18916	42430.925
475.2875	41812.325
479.38291	41641.725
483.4754	41508.125
487.56496	41037.425
491.6516	40206.625
495.73531	39489.125
499.81612	39081.925
503.89401	39116.725
507.96899	39115.725
512.04106	39024.825
516.11023	38636.325
520.1765	38197.525
524.23987	37813.525
528.30034	37369.925
532.35792	36857.425
536.41261	36223.725
540.46441	35687.225
544.51333	35619.025
548.55936	36147.425
552.60252	37285.125
556.64279	38478.025
560.6802	39306.625
564.71473	39756.225
568.7464	40596.025
572.7752	41897.925
576.80114	42909.325
580.82422	43860.825
584.84444	44889.325
588.86181	45723.425
592.87633	46490.625
596.888	46658.925
600.89682	46260.625
604.9028	47580.225
608.90594	52436.425
612.90624	57587.925
616.90371	53508.925
620.89834	42886.125
624.89015	38110.425
628.87913	37656.425
632.86528	37831.525
636.84862	37610.125
640.82913	36813.725
644.80683	35437.525
648.78172	34414.925
652.75379	34165.425
656.72306	34637.125
660.68952	35410.925
664.65319	35169.925
668.61405	34365.125
672.57211	34064.525
676.52738	34058.525
680.47986	34015.725
684.42955	33748.225
688.37646	33618.725
692.32058	33756.625
696.26192	34237.625
700.20048	34819.525
704.13626	35200.425
708.06928	35124.925
711.99952	34806.225
715.927	34701.825
719.85171	34798.825
723.77365	34643.525
727.69284	34096.825
731.60928	33628.225
735.52295	33467.925
739.43388	33506.425
743.34206	33604.725
747.24749	33876.325
751.15017	34330.525
755.05012	35119.225
758.94733	36537.925
762.8418	39036.625
766.73354	43011.125
770.62254	46817.525
774.50882	47603.925
778.39237	44757.725
782.27321	40498.825
786.15132	37151.325
790.02671	35071.225
793.89938	34087.425
797.76935	33739.825
801.6366	33629.025
805.50115	33543.925
809.36299	33285.025
813.22213	32913.825
817.07857	32732.225
820.93231	32582.025
824.78336	32419.725
828.63172	32196.525
832.47738	32085.125
836.32036	32212.825
840.16066	32386.825
843.99827	32552.025
847.8332	32401.625
851.66546	32175.325
855.49504	32064.925
859.32195	32040.025
863.1462	31878.125
866.96777	31685.125
870.78668	31577.725
874.60293	31554.725
878.41652	31544.425
882.22745	31745.525
886.03573	31879.325
889.84136	31899.725
893.64433	31756.325
897.44466	31575.125
901.24235	31377.725
905.0374	31257.325
908.8298	31170.625
912.61957	31195.625
916.40671	31574.825
920.19121	32255.425
923.97308	32875.125
927.75233	33106.325
931.52895	32952.625
935.30295	32315.125
939.07433	31379.925
942.84309	30619.525
946.60924	30324.525
950.37278	30229.625
954.13371	30132.025
957.89203	29998.825
961.64774	29947.925
965.40086	29913.525
969.15137	29777.125
972.89929	29616.025
976.64461	29452.125
980.38733	29503.125
984.12747	29590.025
987.86502	29939.925
991.59999	30488.325
995.33237	31200.225
999.06217	32453.725
1002.78939	33942.225
1006.51404	34814.325
1010.23611	35329.725
1013.95561	35611.725
1017.67255	35582.125
1021.38692	34983.625
1025.09872	34369.625
1028.80796	34627.125
1032.51465	35796.425
1036.21877	37076.325
1039.92035	37370.525
1043.61937	36733.825
1047.31584	35606.325
1051.00976	34413.425
1054.70114	33747.825
1058.38998	33750.925
1062.07627	33929.025
1065.76003	34159.325
1069.44126	34584.725
1073.11995	35192.325
1076.79611	35804.325
1080.46974	36177.725
1084.14085	36553.825
1087.80943	37123.925
1091.47549	37628.825
1095.13903	37635.225
1098.80005	36993.425
1102.45857	35871.925
1106.11456	34901.625
1109.76805	34497.825
1113.41903	34454.625
1117.06751	34692.925
1120.71348	35164.925
1124.35696	35677.825
1127.99793	36310.025
1131.63641	36744.425
1135.2724	36479.125
1138.90589	36102.725
1142.5369	36028.825
1146.16542	36071.125
1149.79145	36300.925
1153.415	36770.025
1157.03607	37502.225
1160.65467	38634.625
1164.27079	40653.925
1167.88443	43492.625
1171.49561	47081.525
1175.10432	51739.325
1178.71056	57609.125
1182.31434	63040.225
1185.91565	66001.025
1189.51451	65721.425
1193.11091	63289.725
1196.70485	59840.325
1200.29634	56343.825
1203.88538	53803.325
1207.47197	51971.425
1211.05612	50803.725
1214.63782	49904.625
1218.21708	48984.025
1221.79391	48305.325
1225.36829	47873.325
1228.94024	47131.625
1232.50976	46011.325
1236.07685	44989.425
1239.6415	44410.925
1243.20374	44179.325
1246.76355	44463.825
1250.32093	45345.625
1253.8759	46600.025
1257.42845	48324.225
1260.97859	50192.125
1264.52631	52058.025
1268.07163	54015.825
1271.61453	56037.525
1275.15503	58292.025
1278.69312	60475.625
1282.22882	62504.025
1285.76211	64463.625
1289.29301	66641.125
1292.82151	69456.525
1296.34761	73130.725
1299.87133	77827.525
1303.39266	83251.125
1306.9116	89276.425
1310.42815	95116.025
1313.94233	98864.325
1317.45412	99183.325
1320.96354	97452.325
1324.47058	94933.225
1327.97525	92664.325
1331.47754	90812.425
1334.97747	89479.725
1338.47502	88475.525
1341.97022	87140.425
1345.46305	85216.125
1348.95352	83068.925
1352.44163	81801.525
1355.92738	82960.825
1359.41078	87002.725
1362.89183	91239.425
1366.37053	90497.825
1369.84688	83169.725
1373.32088	73367.525
1376.79254	66273.225
1380.26186	63457.025
1383.72883	62994.025
1387.19347	62971.925
1390.65578	62471.125
1394.11575	62484.325
1397.57339	63382.925
1401.0287	64882.625
1404.48168	66226.625
1407.93234	66386.725
1411.38068	65090.625
1414.82669	62670.525
1418.27039	59464.825
1421.71177	56318.125
1425.15083	53841.225
1428.58758	52516.925
1432.02203	52743.725
1435.45416	54160.225
1438.88399	56078.225
1442.31151	57827.025
1445.73673	59018.025
1449.15965	60194.625
1452.58027	60885.825
1455.9986	61081.125
1459.41463	61560.225
1462.82837	62676.125
1466.23982	64085.725
1469.64898	65343.025
1473.05586	65922.525
1476.46045	65845.325
1479.86276	65077.225
1483.26279	64188.625
1486.66054	63419.725
1490.05602	63491.625
1493.44922	64018.425
1496.84016	64652.825
1500.22882	66051.325
1503.61521	68369.225
1506.99934	71286.825
1510.38121	74045.325
1513.76081	74989.425
1517.13816	73247.525
1520.51324	69854.425
1523.88607	66583.625
1527.25665	64689.525
1530.62498	63755.025
1533.99105	63318.125
1537.35488	62839.725
1540.71647	61833.125
1544.07581	60413.025
1547.4329	58870.525
1550.78776	57409.125
1554.14038	56463.425
1557.49077	55994.825
1560.83892	55644.125
1564.18484	55803.525
1567.52853	55974.625
1570.86999	56492.225
1574.20922	57415.825
1577.54624	58305.725
1580.88103	58530.525
1584.2136	58978.025
1587.54395	61024.625
1590.87208	64548.525
1594.19801	69376.525
1597.52172	74032.425
1600.84321	75381.625
1604.16251	71348.025
1607.47959	64373.025
1610.79447	57271.125
1614.10715	51141.825
1617.41763	46337.825
1620.7259	43112.525
1624.03199	41550.225
1627.33587	41611.725
1630.63757	43358.625
1633.93707	46900.025
1637.23439	52711.825
1640.52951	60647.825
1643.82246	69646.525
1647.11321	76396.625
1650.40179	77300.725
1653.68819	71414.225
1656.97241	60955.925
1660.25446	50448.325
1663.53433	42510.625
1666.81203	37432.025
1670.08756	34271.125
1673.36092	32352.425
1676.63211	31027.025
1679.90115	30118.725
1683.16801	29449.725
1686.43272	28984.125
1689.69527	28652.025
1692.95567	28404.925
1696.2139	28178.425
1699.46999	28081.425
1702.72392	27886.225
1705.97571	27801.925
1709.22535	27693.625
1712.47284	27633.425
1715.71819	27626.025
1718.96139	27420.125
1722.20246	27384.425
1725.44139	27188.125
1728.67818	27041.225
1731.91284	26821.325
1735.14537	26642.225
1738.37576	26511.125
1741.60403	26391.025
1744.83017	26301.925
1748.05418	26221.125
1751.27607	26197.425
1754.49584	26115.725
1757.71349	26088.125
1760.92903	26046.325
1764.14244	26022.025
1767.35375	25995.425
1770.56294	25900.425
1773.77002	25863.325
1776.97499	25808.625
1780.17785	25727.425
1783.37861	25688.825
1786.57727	25649.425
1789.77382	25588.725
1792.96828	25571.725
1796.16064	25477.325
1799.3509	25397.325
1802.53907	25294.425
1805.72514	25276.825
1808.90913	25226.225
1812.09102	25118.625
1815.27083	25136.525
1818.44856	25102.325
1821.6242	25066.225
1824.79776	25079.125
1827.96924	25022.825
1831.13864	25064.425
1834.30597	25056.425
1837.47122	25059.025
1840.6344	25054.925
1843.7955	25078.825
1846.95454	25068.625
1850.11151	25103.225
1853.26642	25064.425
1856.41926	25066.825
1859.57004	25040.725
1862.71876	25055.825
1865.86542	25048.225
1869.01003	25077.325
1872.15258	25034.325
1875.29308	25067.825
1878.43152	25038.325
1881.56792	25046.425
1884.70227	25034.125
1887.83457	25089.225
1890.96482	25077.225
1894.09304	25045.325
1897.21921	25047.625
1900.34335	25012.525
1903.46544	25009.125
1906.58551	24953.525
1909.70353	24925.025
1912.81953	24856.725
1915.93349	24809.525
1919.04543	24728.225
1922.15534	24662.925
1925.26322	24593.025
1928.36908	24478.625
1931.47292	24366.825
1934.57473	24249.625
1937.67453	24144.325
1940.77232	24051.325
1943.86808	23955.325
1946.96184	23901.925
1950.05358	23804.325
1953.14331	23688.225
1956.23103	23656.625
1959.31675	23520.125
1962.40046	23500.825
1965.48217	23424.125
1968.56188	23297.325
1971.63959	23256.825
1974.7153	23235.825
1977.78901	23124.425
1980.86073	23057.325
1983.93046	22927.025
1986.99819	22889.125
1990.06394	22796.725
1993.1277	22758.225
1996.18947	22690.425
1999.24925	22596.225
2002.30706	22532.225
2005.36288	22468.825
2008.41672	22430.225
2011.46859	22340.525
2014.51848	22326.725
2017.56639	22255.425
2020.61233	22202.325
2023.6563	22195.825
2026.6983	22177.425
2029.73833	22121.725
2032.7764	22110.925
2035.8125	22039.825
2038.84664	22020.425
2041.87881	22028.425
2044.90903	22009.725
2047.93729	21947.125
2050.96359	21895.725
2053.98794	21895.425
2057.01034	21885.025
2060.03078	21837.925
2063.04927	21802.525
2066.06582	21799.825
2069.08042	21769.225
2072.09307	21740.625
2075.10378	21709.625
2078.11255	21751.425
2081.11938	21714.225
2084.12426	21658.525
2087.12722	21673.125
2090.12824	21645.825
2093.12732	21646.025
2096.12447	21655.725
2099.11969	21658.725
2102.11299	21662.325
2105.10435	21679.325
2108.09379	21683.925
2111.08131	21731.025
2114.0669	21688.425
2117.05057	21683.725
2120.03233	21725.725
2123.01216	21735.425
2125.99008	21750.525
2128.96609	21782.725
2131.94018	21792.525
2134.91236	21799.325
2137.88263	21754.325
2140.851	21756.625
2143.81746	21799.725
2146.78201	21798.825
2149.74466	21839.125
2152.7054	21825.425
2155.66425	21811.325
2158.6212	21822.525
2161.57625	21842.625
2164.52941	21832.125
2167.48067	21798.325
2170.43004	21768.725
2173.37752	21772.525
2176.32311	21741.825
2179.26681	21786.125
2182.20863	21843.725
2185.14856	21833.125
2188.08661	21845.825
2191.02278	21877.825
2193.95707	21845.825
2196.88948	21802.825
2199.82001	21836.225
2202.74867	21799.325
2205.67545	21800.925
2208.60037	21824.625
2211.52341	21782.325
2214.44458	21745.825
2217.36388	21719.325
2220.28132	21718.225
2223.1969	21667.125
2226.11061	21629.625
2229.02246	21600.725
2231.93245	21559.725
2234.84058	21551.225
2237.74686	21489.025
2240.65128	21464.025
2243.55385	21394.225
2246.45456	21387.125
2249.35343	21311.325
2252.25044	21277.025
2255.14561	21263.525
2258.03893	21252.925
2260.93041	21186.625
2263.82004	21134.625
2266.70783	21065.225
2269.59378	21011.725
2272.4779	20968.025
2275.36017	20904.325
2278.24061	20885.325
2281.11922	20835.825
2283.996	20805.125
2286.87094	20816.225
2289.74405	20810.925
2292.61534	20782.625
2295.4848	20782.925
2298.35243	20773.725
2301.21824	20748.225
2304.08223	20763.725
2306.94439	20836.325
2309.80474	20839.525
2312.66327	20857.425
2315.51999	20861.825
2318.37489	20818.025
2321.22797	20871.925
2324.07925	20831.825
2326.92871	20828.225
2329.77637	20841.125
2332.62222	20789.925
2335.46626	20774.325
2338.3085	20749.525
2341.14893	20804.725
2343.98756	20823.025
2346.8244	20857.125
2349.65943	20848.225
2352.49267	20881.525
2355.32411	20899.825
2358.15376	20889.825
2360.98161	20866.925
2363.80768	20843.825
2366.63195	20810.925
2369.45444	20759.225
2372.27514	20709.325
2375.09405	20647.325
2377.91118	20599.525
2380.72652	20529.425
2383.54009	20481.325
2386.35187	20430.425
2389.16188	20420.125
2391.97011	20431.325
2394.77657	20378.125
2397.58125	20324.625
2400.38416	20284.225
2403.18529	20256.725
2405.98466	20264.725
2408.78226	20185.625
2411.57809	20184.325
2414.37216	20155.425
2417.16446	20146.725
2419.955	20089.025
2422.74378	20077.625
2425.5308	20056.225
2428.31606	20062.025
2431.09956	20023.325
2433.88131	20034.325
2436.6613	20014.425
2439.43954	20053.525
2442.21603	20061.025
2444.99077	20028.625
2447.76377	20076.025
2450.53501	20033.925
2453.30451	20063.125
2456.07226	20067.525
2458.83827	20051.425
2461.60254	20047.325
2464.36507	20080.325
2467.12586	20081.025
2469.88492	20061.025
2472.64224	20110.625
2475.39782	20105.325
2478.15167	20121.225
2480.90379	20136.825
2483.65417	20171.825
2486.40283	20175.025
2489.14976	20200.825
2491.89497	20195.325
2494.63845	20214.625
2497.3802	20224.125
2500.12024	20232.925
2502.85855	20186.225
2505.59514	20222.725
2508.33002	20213.825
2511.06318	20148.525
2513.79462	20142.425
2516.52435	20112.125
2519.25237	20078.725
2521.97867	20065.225
2524.70327	20034.925
2527.42616	20046.125
2530.14734	20067.825
2532.86681	20024.225
2535.58458	20013.025
2538.30065	19993.725
2541.01501	19980.525
2543.72768	19979.425
2546.43864	20010.825
2549.14791	19972.725
2551.85548	19939.025
2554.56136	19956.925
2557.26554	19962.825
2559.96803	19944.325
2562.66883	19927.425
2565.36794	19897.025
2568.06536	19881.225
2570.7611	19898.825
2573.45514	19922.625
2576.14751	19897.725
2578.83819	19866.725
2581.52719	19873.125
2584.21451	19882.725
2586.90015	19898.725
2589.58411	19859.125
2592.2664	19879.825
2594.94701	19838.025
2597.62594	19832.925
2600.30321	19824.725
2602.9788	19817.525
2605.65273	19786.125
2608.32498	19797.725
2610.99557	19822.525
2613.66449	19842.825
2616.33175	19858.925
2618.99734	19854.825
2621.66128	19854.425
2624.32355	19843.225
2626.98416	19888.925
2629.64311	19862.225
2632.30041	19866.625
2634.95605	19883.025
2637.61004	19828.925
2640.26238	19848.625
2642.91306	19819.625
2645.56209	19792.825
2648.20948	19814.225
2650.85521	19793.025
2653.4993	19762.625
2656.14175	19784.725
2658.78255	19789.625
2661.42171	19739.125
2664.05923	19821.325
2666.6951	19836.725
2669.32934	19840.825
2671.96194	19842.125
2674.59291	19856.925
2677.22224	19810.525
2679.84993	19812.925
2682.476	19776.425
2685.10043	19775.625
2687.72324	19699.325
2690.34441	19755.125
2692.96396	19729.625
2695.58188	19753.225
2698.19818	19696.825
2700.81285	19713.825
2703.4259	19717.825
2706.03733	19763.625
2708.64714	19717.025
2711.25533	19706.425
2713.86191	19781.825
2716.46687	19820.225
2719.07021	19818.625
2721.67194	19838.925
2724.27206	19834.325
2726.87057	19850.125
2729.46747	19828.125
2732.06276	19858.625
2734.65644	19839.125
2737.24852	19897.025
2739.83899	19859.825
2742.42786	19860.225
2745.01513	19825.825
2747.60079	19789.925
2750.18486	19794.725
2752.76733	19842.025
2755.3482	19804.425
2757.92747	19798.125
2760.50515	19760.725
2763.08123	19776.625
2765.65573	19739.925
2768.22863	19776.225
2770.79994	19787.225
2773.36967	19758.525
2775.9378	19827.325
2778.50435	19788.325
2781.06932	19755.925
2783.6327	19774.125
2786.1945	19755.625
2788.75471	19716.725
2791.31335	19683.325
2793.87041	19690.525
2796.42589	19666.425
2798.97979	19686.525
2801.53212	19647.825
2804.08288	19608.125
2806.63206	19535.725
2809.17967	19494.625
2811.72571	19486.525
2814.27018	19434.825
2816.81308	19392.525
2819.35442	19404.425
2821.89419	19374.925
2824.43239	19358.125
2826.96904	19382.225
2829.50412	19361.425
2832.03763	19374.225
2834.56959	19350.225
2837.1	19318.625
2839.62884	19306.825
2842.15613	19318.425
2844.68186	19352.325
2847.20604	19410.125
2849.72867	19451.725
2852.24974	19381.725
2854.76927	19414.125
2857.28724	19371.725
2859.80367	19360.125
2862.31855	19320.825
2864.83189	19357.225
2867.34368	19295.325
2869.85393	19314.825
2872.36264	19319.125
2874.8698	19356.125
2877.37543	19360.725
2879.87952	19386.025
2882.38207	19371.625
2884.88308	19371.625
2887.38256	19330.025
2889.88051	19344.925
2892.37692	19418.225
2894.8718	19447.925
2897.36515	19455.425
2899.85698	19461.925
2902.34727	19496.625
2904.83604	19519.725
2907.32328	19556.725
2909.809	19542.325
2912.29319	19528.525
2914.77587	19560.225
2917.25702	19554.925
2919.73665	19543.525
2922.21476	19548.225
2924.69136	19534.325
2927.16644	19512.925
2929.64	19465.325
2932.11205	19418.425
2934.58258	19332.625
2937.05161	19347.225
2939.51912	19341.225
2941.98513	19300.325
2944.44962	19248.125
2946.91261	19189.725
2949.37409	19189.125
2951.83407	19184.425
2954.29254	19166.625
2956.74951	19113.925
2959.20498	19113.125
2961.65895	19035.225
2964.11142	19046.625
2966.56239	19008.325
2969.01186	18966.325
2971.45984	18894.625
2973.90632	18856.725
2976.35131	18847.125
2978.7948	18826.925
2981.23681	18703.225
2983.67732	18667.725
2986.11635	18537.725
2988.55388	18548.325
2990.98993	18505.225
2993.4245	18444.225
2995.85758	18372.025
2998.28917	18353.425
3000.71928	18372.925
3003.14791	18332.125
3005.57506	18261.525
3008.00073	18232.325
3010.42493	18242.925
3012.84764	18176.625
3015.26888	18162.825
3017.68865	18132.125
3020.10694	18091.125
3022.52376	18088.225
3024.9391	18050.625
3027.35298	18033.825
3029.76539	17993.025
3032.17632	17970.725
3034.5858	17953.325
3036.9938	17942.325
3039.40034	17955.125
3041.80542	17949.725
3044.20903	17921.525
3046.61118	17849.125
3049.01187	17835.925
3051.4111	17844.125
3053.80888	17777.625
3056.20519	17733.125
3058.60005	17710.425
3060.99345	17663.925
3063.3854	17624.425
3065.7759	17556.725
3068.16494	17533.525
3070.55254	17452.025
3072.93868	17442.625
3075.32338	17420.625
3077.70662	17386.925
3080.08842	17309.425
3082.46878	17312.725
3084.84769	17257.725
3087.22515	17237.725
3089.60118	17248.025
3091.97576	17210.625
3094.3489	17218.425
3096.72061	17227.325
3099.09087	17173.525
3101.4597	17135.325
3103.82709	17113.125
3106.19305	17087.425
3108.55757	17094.525
3110.92066	17008.825
3113.28232	17043.825
3115.64255	16982.225
3118.00134	16953.825
3120.35871	16937.225
3122.71466	16893.425
3125.06917	16833.325
3127.42226	16798.425
3129.77393	16811.725
3132.12417	16772.825
3134.47299	16805.925
3136.82039	16763.325
3139.16636	16786.125
3141.51092	16744.625
3143.85406	16790.525
3146.19579	16783.025
3148.53609	16768.125
3150.87499	16784.725
3153.21246	16792.825
3155.54853	16829.625
3157.88318	16767.325
3160.21642	16784.925
3162.54826	16758.425
3164.87868	16753.825
3167.2077	16730.925
3169.5353	16713.725
3171.86151	16705.925
3174.18631	16687.325
3176.5097	16693.825
3178.83169	16672.725
3181.15228	16650.525
3183.47147	16613.725
3185.78926	16620.525
3188.10565	16562.325
3190.42065	16588.425
3192.73424	16608.625
3195.04645	16612.325
3197.35725	16597.925
3199.66667	16597.625
3201.97469	16598.525
3204.28132	16591.725
3206.58656	16577.225
3208.8904	16599.825
3211.19287	16643.625
3213.49394	16614.425
3215.79363	16618.625
3218.09193	16604.825
3220.38884	16591.125
3222.68438	16616.425
3224.97853	16598.825
3227.2713	16570.625
3229.56269	16564.125
3231.8527	16535.025
3234.14133	16493.225
3236.42858	16511.025
3238.71446	16480.725
3240.99896	16439.325
3243.28209	16453.025
3245.56384	16430.225
3247.84423	16442.925
3250.12324	16372.025
3252.40088	16376.425
3254.67715	16314.725
3256.95205	16267.425
3259.22558	16280.325
3261.49775	16280.525
3263.76855	16230.025
3266.03799	16188.825
3268.30606	16198.325
3270.57277	16190.025
3272.83812	16125.125
3275.10211	16107.625
3277.36474	16084.425
3279.62601	16124.625
3281.88593	16150.225
3284.14448	16137.225
3286.40168	16148.325
3288.65753	16094.025
3290.91202	16088.325
3293.16516	16000.225
3295.41695	15963.925
3297.66738	15895.725
3299.91647	15852.525
3302.16421	15763.925
3304.4106	15690.025
3306.65564	15579.925
3308.89933	15464.625
3311.14169	15389.925
3313.38269	15237.825
3315.62236	15184.225
3317.86068	15060.225
3320.09766	14904.825
3322.3333	14814.825
3324.5676	14808.625
3326.80056	14578.525
3329.03219	14494.825
3331.26248	2.825
3333.49143	-0.275
3335.71905	-0.775
