Data from AgNPs_FTO_APTES_UA_2uM_CRN_10uM_R6G_10uM_NaF_0.1M_Addition_RamanShift__10__13-29-45-150.txt Node

Date: Wed Feb 02 13:29:45 GMT 2022
User: TCL
Spectrometer: QEP01345
Trigger mode: 4
Integration Time (sec): 7.000000E0
Scans to average: 10
Electric dark correction enabled: true
Nonlinearity correction enabled: false
Boxcar width: 0
XAxis mode: Raman Shifts
Number of Pixels in Spectrum: 1044
>>>>>Begin Spectral Data<<<<<
46.04893	0.675
50.45542	-0.025
54.85868	-1.325
59.25871	-0.725
63.6555	89.675
68.04907	97.475
72.43941	103.775
76.82654	107.675
81.21044	109.875
85.59113	116.375
89.96862	117.875
94.34289	121.675
98.71396	127.675
103.08183	129.975
107.4465	137.475
111.80798	140.575
116.16626	142.275
120.52136	148.275
124.87327	153.675
129.222	159.475
133.56755	177.875
137.90993	191.675
142.24913	207.875
146.58517	237.875
150.91804	278.875
155.24774	335.475
159.57429	421.175
163.89768	544.575
168.21792	725.475
172.53501	990.575
176.84895	1384.475
181.15975	1933.875
185.46741	2732.175
189.77193	3769.775
194.07331	5039.075
198.37157	6506.475
202.6667	8027.975
206.9587	9560.575
211.24758	11045.175
215.53334	12531.975
219.81599	14089.675
224.09553	15786.075
228.37195	17691.675
232.64527	19806.675
236.91549	21996.775
241.18261	24194.875
245.44663	26267.675
249.70755	28133.375
253.96539	29809.075
258.22014	31181.275
262.4718	32308.975
266.72039	33084.875
270.96589	33502.675
275.20832	33543.975
279.44768	33322.875
283.68397	33067.275
287.91719	32831.375
292.14735	32661.275
296.37445	32643.875
300.59849	32701.875
304.81948	32878.675
309.03742	32899.775
313.25231	32726.975
317.46415	32167.475
321.67296	31469.275
325.87872	30838.675
330.08145	30426.775
334.28114	30360.575
338.47781	30477.575
342.67145	30738.475
346.86207	31101.975
351.04966	31555.075
355.23424	31973.275
359.4158	32408.375
363.59435	32744.075
367.76989	32939.175
371.94243	33096.475
376.11196	33123.075
380.27849	33146.575
384.44203	33311.075
388.60257	33542.075
392.76012	33957.675
396.91468	34535.875
401.06626	35124.575
405.21485	35527.375
409.36047	35369.575
413.50311	34994.475
417.64277	34810.075
421.77947	35010.775
425.9132	35225.875
430.04396	35440.775
434.17176	35553.575
438.2966	35637.075
442.41849	35988.975
446.53742	36703.875
450.6534	37486.775
454.76644	38010.175
458.87653	38325.375
462.98368	38314.775
467.08789	38079.075
471.18916	37635.475
475.2875	37274.675
479.38291	37087.175
483.4754	36893.675
487.56496	36547.575
491.6516	36036.275
495.73531	35430.075
499.81612	35026.875
503.89401	35126.075
507.96899	35336.975
512.04106	35377.475
516.11023	35172.875
520.1765	34747.775
524.23987	34342.075
528.30034	33863.675
532.35792	33486.675
536.41261	33101.375
540.46441	32857.475
544.51333	32943.275
548.55936	33344.375
552.60252	34034.175
556.64279	34795.675
560.6802	35399.275
564.71473	35948.375
568.7464	36708.175
572.7752	38095.975
576.80114	39703.375
580.82422	41410.675
584.84444	43031.675
588.86181	44972.675
592.87633	46590.975
596.888	46024.575
600.89682	43585.575
604.9028	42193.975
608.90594	43376.175
612.90624	44885.375
616.90371	41970.175
620.89834	36443.375
624.89015	34063.175
628.87913	34009.275
632.86528	34424.775
636.84862	34379.975
640.82913	33744.775
644.80683	32833.975
648.78172	32306.775
652.75379	32327.575
656.72306	32629.675
660.68952	32979.375
664.65319	32803.275
668.61405	32311.075
672.57211	32240.575
676.52738	32381.175
680.47986	32310.775
684.42955	32176.675
688.37646	32061.175
692.32058	32171.375
696.26192	32593.575
700.20048	33073.075
704.13626	33428.475
708.06928	33623.775
711.99952	33540.875
715.927	33502.475
719.85171	33502.875
723.77365	33180.675
727.69284	32651.175
731.60928	32187.375
735.52295	31900.375
739.43388	31787.175
743.34206	31901.175
747.24749	32206.875
751.15017	32597.175
755.05012	33266.475
758.94733	34202.375
762.8418	35796.375
766.73354	37886.875
770.62254	39772.075
774.50882	39791.075
778.39237	37883.675
782.27321	35680.175
786.15132	33892.575
790.02671	32718.675
793.89938	32093.475
797.76935	31790.775
801.6366	31646.875
805.50115	31531.975
809.36299	31416.175
813.22213	31204.375
817.07857	31082.675
820.93231	30983.475
824.78336	30802.275
828.63172	30651.075
832.47738	30528.875
836.32036	30485.575
840.16066	30480.975
843.99827	30453.275
847.8332	30424.075
851.66546	30467.775
855.49504	30521.575
859.32195	30514.775
863.1462	30433.075
866.96777	30385.475
870.78668	30325.275
874.60293	30330.775
878.41652	30371.775
882.22745	30369.575
886.03573	30464.675
889.84136	30485.475
893.64433	30380.675
897.44466	30290.575
901.24235	30307.375
905.0374	30236.575
908.8298	30230.975
912.61957	30324.975
916.40671	30711.575
920.19121	31187.575
923.97308	31549.275
927.75233	31538.075
931.52895	31084.775
935.30295	30412.975
939.07433	29772.275
942.84309	29346.075
946.60924	29099.575
950.37278	29019.275
954.13371	29038.175
957.89203	29076.275
961.64774	29110.375
965.40086	29086.075
969.15137	29003.275
972.89929	28822.075
976.64461	28649.375
980.38733	28546.775
984.12747	28526.975
987.86502	28639.675
991.59999	28829.275
995.33237	28983.275
999.06217	29359.375
1002.78939	29883.275
1006.51404	30455.375
1010.23611	31002.775
1013.95561	31379.075
1017.67255	31470.875
1021.38692	31188.375
1025.09872	30654.175
1028.80796	30255.575
1032.51465	30111.875
1036.21877	30212.475
1039.92035	30378.475
1043.61937	30540.575
1047.31584	30549.775
1051.00976	30579.575
1054.70114	30697.375
1058.38998	30943.675
1062.07627	31337.075
1065.76003	31815.975
1069.44126	32361.475
1073.11995	33000.075
1076.79611	33494.475
1080.46974	33665.975
1084.14085	33780.975
1087.80943	34098.175
1091.47549	34505.375
1095.13903	34649.175
1098.80005	34252.675
1102.45857	33362.675
1106.11456	32487.975
1109.76805	31977.875
1113.41903	31857.675
1117.06751	31960.875
1120.71348	32215.775
1124.35696	32547.475
1127.99793	32981.075
1131.63641	33223.075
1135.2724	33237.875
1138.90589	33283.375
1142.5369	33472.675
1146.16542	33821.775
1149.79145	34304.975
1153.415	34754.175
1157.03607	35412.075
1160.65467	36527.375
1164.27079	38235.475
1167.88443	40298.475
1171.49561	42328.275
1175.10432	44645.575
1178.71056	47540.575
1182.31434	50280.575
1185.91565	51775.475
1189.51451	51785.575
1193.11091	50957.275
1196.70485	49544.675
1200.29634	47788.575
1203.88538	46609.375
1207.47197	46229.475
1211.05612	46243.275
1214.63782	45675.375
1218.21708	44279.575
1221.79391	42578.875
1225.36829	41161.275
1228.94024	40350.675
1232.50976	39842.875
1236.07685	39406.275
1239.6415	39144.375
1243.20374	39143.975
1246.76355	39434.875
1250.32093	40033.675
1253.8759	40930.275
1257.42845	42075.475
1260.97859	43375.875
1264.52631	44746.875
1268.07163	46079.375
1271.61453	47399.075
1275.15503	48796.575
1278.69312	50364.875
1282.22882	52178.175
1285.76211	54332.475
1289.29301	56613.975
1292.82151	59386.875
1296.34761	62664.675
1299.87133	66285.775
1303.39266	69621.175
1306.9116	72075.475
1310.42815	73576.475
1313.94233	74104.275
1317.45412	73624.675
1320.96354	72885.475
1324.47058	72697.175
1327.97525	72873.775
1331.47754	72920.575
1334.97747	72665.375
1338.47502	72052.175
1341.97022	71192.675
1345.46305	70035.075
1348.95352	68919.775
1352.44163	67976.475
1355.92738	68059.875
1359.41078	69345.475
1362.89183	70714.175
1366.37053	70010.075
1369.84688	65894.375
1373.32088	59699.975
1376.79254	55071.975
1380.26186	53485.975
1383.72883	53705.875
1387.19347	54065.975
1390.65578	53749.575
1394.11575	53548.275
1397.57339	53993.175
1401.0287	54852.775
1404.48168	55508.975
1407.93234	55104.275
1411.38068	53686.775
1414.82669	51464.475
1418.27039	49068.275
1421.71177	46792.475
1425.15083	45076.575
1428.58758	44389.075
1432.02203	44895.875
1435.45416	46167.175
1438.88399	47744.575
1442.31151	48880.375
1445.73673	49518.175
1449.15965	49971.275
1452.58027	50271.275
1455.9986	50327.175
1459.41463	50667.175
1462.82837	51327.375
1466.23982	52110.375
1469.64898	52873.475
1473.05586	53173.175
1476.46045	53173.675
1479.86276	52770.075
1483.26279	52354.875
1486.66054	52110.875
1490.05602	52387.475
1493.44922	53059.875
1496.84016	53931.275
1500.22882	55007.175
1503.61521	56211.775
1506.99934	57348.175
1510.38121	58243.575
1513.76081	58458.775
1517.13816	57890.075
1520.51324	57218.075
1523.88607	56987.975
1527.25665	57239.375
1530.62498	57353.375
1533.99105	56874.575
1537.35488	55659.275
1540.71647	53894.775
1544.07581	51918.575
1547.4329	50025.075
1550.78776	48648.275
1554.14038	47663.375
1557.49077	47069.175
1560.83892	46786.975
1564.18484	46715.375
1567.52853	46795.875
1570.86999	47138.075
1574.20922	48224.175
1577.54624	49393.275
1580.88103	50164.575
1584.2136	51194.775
1587.54395	52942.975
1590.87208	55587.675
1594.19801	58486.075
1597.52172	60810.775
1600.84321	60591.475
1604.16251	57276.775
1607.47959	52452.375
1610.79447	47792.075
1614.10715	43731.775
1617.41763	40414.875
1620.7259	38131.775
1624.03199	36987.175
1627.33587	37122.075
1630.63757	38367.175
1633.93707	41092.275
1637.23439	45880.375
1640.52951	52735.275
1643.82246	60745.675
1647.11321	66971.375
1650.40179	67780.975
1653.68819	62439.475
1656.97241	53719.675
1660.25446	45261.175
1663.53433	38863.275
1666.81203	34707.875
1670.08756	32089.375
1673.36092	30397.175
1676.63211	29321.375
1679.90115	28630.475
1683.16801	28075.275
1686.43272	27632.075
1689.69527	27307.575
1692.95567	27117.675
1696.2139	26972.675
1699.46999	26839.675
1702.72392	26693.875
1705.97571	26582.575
1709.22535	26479.275
1712.47284	26372.675
1715.71819	26317.775
1718.96139	26250.475
1722.20246	26127.175
1725.44139	25978.975
1728.67818	25857.375
1731.91284	25658.675
1735.14537	25435.875
1738.37576	25377.675
1741.60403	25279.875
1744.83017	25194.375
1748.05418	25115.675
1751.27607	25060.775
1754.49584	25043.575
1757.71349	25012.175
1760.92903	24961.775
1764.14244	24917.375
1767.35375	24874.875
1770.56294	24859.175
1773.77002	24770.275
1776.97499	24731.875
1780.17785	24578.575
1783.37861	24548.675
1786.57727	24525.875
1789.77382	24418.575
1792.96828	24428.475
1796.16064	24360.175
1799.3509	24336.475
1802.53907	24254.275
1805.72514	24148.675
1808.90913	24102.975
1812.09102	24061.575
1815.27083	24041.275
1818.44856	23985.975
1821.6242	23967.875
1824.79776	23950.375
1827.96924	23889.575
1831.13864	23906.575
1834.30597	23903.575
1837.47122	23889.575
1840.6344	23925.975
1843.7955	23958.775
1846.95454	23924.975
1850.11151	23953.975
1853.26642	23854.275
1856.41926	23860.675
1859.57004	23814.575
1862.71876	23764.175
1865.86542	23769.975
1869.01003	23700.475
1872.15258	23631.575
1875.29308	23641.075
1878.43152	23534.875
1881.56792	23529.475
1884.70227	23464.075
1887.83457	23447.875
1890.96482	23429.675
1894.09304	23407.275
1897.21921	23389.475
1900.34335	23317.375
1903.46544	23267.875
1906.58551	23239.275
1909.70353	23153.775
1912.81953	23093.075
1915.93349	23041.175
1919.04543	22971.175
1922.15534	22983.275
1925.26322	22880.375
1928.36908	22802.075
1931.47292	22784.275
1934.57473	22661.375
1937.67453	22622.875
1940.77232	22545.375
1943.86808	22517.675
1946.96184	22438.675
1950.05358	22387.675
1953.14331	22338.275
1956.23103	22265.875
1959.31675	22216.275
1962.40046	22121.875
1965.48217	22058.675
1968.56188	22007.875
1971.63959	21933.975
1974.7153	21828.075
1977.78901	21825.875
1980.86073	21672.175
1983.93046	21613.775
1986.99819	21521.975
1990.06394	21524.375
1993.1277	21435.775
1996.18947	21319.075
1999.24925	21288.075
2002.30706	21183.975
2005.36288	21107.175
2008.41672	21067.375
2011.46859	21003.875
2014.51848	20927.875
2017.56639	20903.775
2020.61233	20826.275
2023.6563	20810.575
2026.6983	20749.675
2029.73833	20674.575
2032.7764	20638.875
2035.8125	20599.375
2038.84664	20545.275
2041.87881	20509.975
2044.90903	20419.075
2047.93729	20420.175
2050.96359	20419.775
2053.98794	20361.475
2057.01034	20370.975
2060.03078	20330.775
2063.04927	20301.075
2066.06582	20300.575
2069.08042	20279.675
2072.09307	20231.375
2075.10378	20231.475
2078.11255	20235.875
2081.11938	20202.975
2084.12426	20148.575
2087.12722	20182.375
2090.12824	20173.975
2093.12732	20207.375
2096.12447	20186.775
2099.11969	20195.775
2102.11299	20172.675
2105.10435	20210.975
2108.09379	20138.775
2111.08131	20182.875
2114.0669	20159.475
2117.05057	20195.075
2120.03233	20227.975
2123.01216	20219.675
2125.99008	20238.275
2128.96609	20207.075
2131.94018	20241.575
2134.91236	20256.975
2137.88263	20257.775
2140.851	20236.575
2143.81746	20285.875
2146.78201	20237.775
2149.74466	20211.075
2152.7054	20209.175
2155.66425	20189.275
2158.6212	20159.975
2161.57625	20142.975
2164.52941	20192.975
2167.48067	20166.975
2170.43004	20094.675
2173.37752	20080.775
2176.32311	20095.575
2179.26681	20153.475
2182.20863	20087.075
2185.14856	20078.875
2188.08661	20072.775
2191.02278	20082.875
2193.95707	20082.675
2196.88948	20021.075
2199.82001	20046.275
2202.74867	20016.675
2205.67545	20002.975
2208.60037	19916.475
2211.52341	19915.475
2214.44458	19861.375
2217.36388	19836.275
2220.28132	19753.875
2223.1969	19721.475
2226.11061	19751.575
2229.02246	19674.475
2231.93245	19674.475
2234.84058	19668.475
2237.74686	19604.975
2240.65128	19627.775
2243.55385	19552.975
2246.45456	19557.575
2249.35343	19475.375
2252.25044	19443.775
2255.14561	19395.975
2258.03893	19348.275
2260.93041	19300.975
2263.82004	19228.275
2266.70783	19183.675
2269.59378	19127.175
2272.4779	19053.075
2275.36017	19037.175
2278.24061	18983.175
2281.11922	18950.175
2283.996	18916.175
2286.87094	18835.775
2289.74405	18821.175
2292.61534	18844.175
2295.4848	18796.675
2298.35243	18798.775
2301.21824	18779.375
2304.08223	18752.375
2306.94439	18781.875
2309.80474	18735.075
2312.66327	18717.575
2315.51999	18692.575
2318.37489	18661.675
2321.22797	18633.075
2324.07925	18581.575
2326.92871	18569.475
2329.77637	18551.675
2332.62222	18533.275
2335.46626	18517.375
2338.3085	18449.675
2341.14893	18473.075
2343.98756	18462.775
2346.8244	18445.075
2349.65943	18445.375
2352.49267	18420.875
2355.32411	18449.075
2358.15376	18427.175
2360.98161	18399.475
2363.80768	18379.375
2366.63195	18385.975
2369.45444	18346.375
2372.27514	18349.375
2375.09405	18271.875
2377.91118	18256.775
2380.72652	18221.875
2383.54009	18181.475
2386.35187	18147.775
2389.16188	18127.675
2391.97011	18073.775
2394.77657	18041.775
2397.58125	18017.175
2400.38416	18002.175
2403.18529	17965.075
2405.98466	17966.875
2408.78226	17943.975
2411.57809	17934.675
2414.37216	17887.775
2417.16446	17881.875
2419.955	17855.275
2422.74378	17862.575
2425.5308	17852.775
2428.31606	17862.775
2431.09956	17821.075
2433.88131	17771.375
2436.6613	17775.375
2439.43954	17782.275
2442.21603	17717.475
2444.99077	17694.575
2447.76377	17678.475
2450.53501	17656.775
2453.30451	17684.875
2456.07226	17659.275
2458.83827	17672.875
2461.60254	17644.475
2464.36507	17651.475
2467.12586	17650.275
2469.88492	17610.275
2472.64224	17619.075
2475.39782	17611.675
2478.15167	17623.175
2480.90379	17598.375
2483.65417	17569.875
2486.40283	17600.075
2489.14976	17586.575
2491.89497	17565.975
2494.63845	17616.675
2497.3802	17568.275
2500.12024	17543.475
2502.85855	17537.875
2505.59514	17573.375
2508.33002	17552.875
2511.06318	17523.975
2513.79462	17506.075
2516.52435	17444.675
2519.25237	17443.375
2521.97867	17451.275
2524.70327	17451.075
2527.42616	17429.875
2530.14734	17429.775
2532.86681	17391.875
2535.58458	17382.975
2538.30065	17324.275
2541.01501	17334.675
2543.72768	17321.275
2546.43864	17255.975
2549.14791	17233.675
2551.85548	17253.375
2554.56136	17238.775
2557.26554	17234.375
2559.96803	17176.075
2562.66883	17193.675
2565.36794	17162.775
2568.06536	17119.975
2570.7611	17108.175
2573.45514	17090.475
2576.14751	17063.275
2578.83819	17059.475
2581.52719	17067.275
2584.21451	17000.175
2586.90015	16987.275
2589.58411	16985.775
2592.2664	16964.375
2594.94701	16969.375
2597.62594	16948.675
2600.30321	16862.575
2602.9788	16889.675
2605.65273	16915.075
2608.32498	16847.575
2610.99557	16874.075
2613.66449	16864.375
2616.33175	16857.675
2618.99734	16846.875
2621.66128	16827.375
2624.32355	16819.175
2626.98416	16807.675
2629.64311	16810.375
2632.30041	16791.075
2634.95605	16777.875
2637.61004	16751.275
2640.26238	16735.475
2642.91306	16700.975
2645.56209	16689.275
2648.20948	16691.375
2650.85521	16723.175
2653.4993	16738.575
2656.14175	16721.175
2658.78255	16740.275
2661.42171	16740.875
2664.05923	16756.075
2666.6951	16764.775
2669.32934	16771.675
2671.96194	16756.575
2674.59291	16741.075
2677.22224	16760.375
2679.84993	16730.075
2682.476	16730.275
2685.10043	16707.975
2687.72324	16718.575
2690.34441	16699.175
2692.96396	16700.975
2695.58188	16748.875
2698.19818	16719.175
2700.81285	16730.875
2703.4259	16730.275
2706.03733	16796.675
2708.64714	16764.075
2711.25533	16736.775
2713.86191	16722.775
2716.46687	16703.875
2719.07021	16700.075
2721.67194	16750.975
2724.27206	16723.575
2726.87057	16754.875
2729.46747	16772.075
2732.06276	16782.475
2734.65644	16723.675
2737.24852	16725.375
2739.83899	16689.675
2742.42786	16737.975
2745.01513	16662.875
2747.60079	16699.375
2750.18486	16694.375
2752.76733	16714.875
2755.3482	16705.175
2757.92747	16685.475
2760.50515	16648.975
2763.08123	16644.575
2765.65573	16631.975
2768.22863	16603.775
2770.79994	16582.475
2773.36967	16580.975
2775.9378	16602.375
2778.50435	16581.275
2781.06932	16559.475
2783.6327	16570.075
2786.1945	16515.475
2788.75471	16529.175
2791.31335	16447.575
2793.87041	16437.275
2796.42589	16403.175
2798.97979	16370.075
2801.53212	16378.175
2804.08288	16369.475
2806.63206	16318.975
2809.17967	16290.175
2811.72571	16261.475
2814.27018	16232.575
2816.81308	16221.475
2819.35442	16158.575
2821.89419	16111.875
2824.43239	16150.475
2826.96904	16115.675
2829.50412	16128.275
2832.03763	16061.075
2834.56959	16064.875
2837.1	16021.275
2839.62884	16069.775
2842.15613	16047.075
2844.68186	16052.775
2847.20604	16077.175
2849.72867	16089.875
2852.24974	16050.975
2854.76927	16055.375
2857.28724	16057.075
2859.80367	16057.275
2862.31855	15994.675
2864.83189	15961.875
2867.34368	15911.775
2869.85393	15903.475
2872.36264	15859.175
2874.8698	15849.275
2877.37543	15863.475
2879.87952	15828.375
2882.38207	15843.675
2884.88308	15850.475
2887.38256	15907.875
2889.88051	15885.775
2892.37692	15902.575
2894.8718	15854.375
2897.36515	15884.175
2899.85698	15872.675
2902.34727	15911.375
2904.83604	15856.175
2907.32328	15890.575
2909.809	15862.475
2912.29319	15859.175
2914.77587	15813.475
2917.25702	15832.775
2919.73665	15818.175
2922.21476	15829.675
2924.69136	15819.575
2927.16644	15893.075
2929.64	15826.475
2932.11205	15826.975
2934.58258	15792.175
2937.05161	15801.975
2939.51912	15828.675
2941.98513	15777.275
2944.44962	15710.775
2946.91261	15627.175
2949.37409	15653.675
2951.83407	15624.175
2954.29254	15637.275
2956.74951	15600.975
2959.20498	15590.375
2961.65895	15508.375
2964.11142	15513.375
2966.56239	15463.075
2969.01186	15468.475
2971.45984	15443.975
2973.90632	15408.775
2976.35131	15354.175
2978.7948	15321.475
2981.23681	15284.775
2983.67732	15258.175
2986.11635	15197.175
2988.55388	15188.775
2990.98993	15113.675
2993.4245	15102.975
2995.85758	15046.775
2998.28917	15035.475
3000.71928	15005.675
3003.14791	14949.975
3005.57506	14930.375
3008.00073	14908.875
3010.42493	14882.375
3012.84764	14824.875
3015.26888	14819.475
3017.68865	14753.875
3020.10694	14735.375
3022.52376	14704.575
3024.9391	14677.375
3027.35298	14636.975
3029.76539	14604.875
3032.17632	14580.275
3034.5858	14568.375
3036.9938	14547.175
3039.40034	14531.675
3041.80542	14507.275
3044.20903	14492.875
3046.61118	14476.375
3049.01187	14449.675
3051.4111	14443.475
3053.80888	14416.475
3056.20519	14356.475
3058.60005	14326.975
3060.99345	14279.575
3063.3854	14250.075
3065.7759	14180.275
3068.16494	14178.075
3070.55254	14074.475
3072.93868	14059.475
3075.32338	14017.475
3077.70662	14020.275
3080.08842	13976.975
3082.46878	13944.975
3084.84769	13889.575
3087.22515	13897.675
3089.60118	13909.975
3091.97576	13855.375
3094.3489	13839.375
3096.72061	13813.175
3099.09087	13829.975
3101.4597	13798.775
3103.82709	13791.075
3106.19305	13785.975
3108.55757	13771.075
3110.92066	13671.475
3113.28232	13650.275
3115.64255	13631.775
3118.00134	13602.775
3120.35871	13547.075
3122.71466	13521.775
3125.06917	13504.575
3127.42226	13444.375
3129.77393	13452.875
3132.12417	13418.375
3134.47299	13425.775
3136.82039	13434.475
3139.16636	13435.375
3141.51092	13412.375
3143.85406	13394.675
3146.19579	13400.775
3148.53609	13364.475
3150.87499	13364.475
3153.21246	13365.875
3155.54853	13356.675
3157.88318	13338.975
3160.21642	13344.575
3162.54826	13330.775
3164.87868	13299.075
3167.2077	13282.675
3169.5353	13285.775
3171.86151	13247.875
3174.18631	13260.875
3176.5097	13276.575
3178.83169	13241.575
3181.15228	13230.975
3183.47147	13208.175
3185.78926	13204.275
3188.10565	13170.775
3190.42065	13151.275
3192.73424	13143.675
3195.04645	13131.075
3197.35725	13116.275
3199.66667	13099.475
3201.97469	13112.975
3204.28132	13096.875
3206.58656	13109.875
3208.8904	13084.675
3211.19287	13089.675
3213.49394	13085.575
3215.79363	13057.975
3218.09193	13043.375
3220.38884	13032.175
3222.68438	13040.775
3224.97853	13005.475
3227.2713	12986.275
3229.56269	12991.375
3231.8527	12925.075
3234.14133	12934.775
3236.42858	12901.875
3238.71446	12877.575
3240.99896	12854.575
3243.28209	12849.975
3245.56384	12829.975
3247.84423	12817.675
3250.12324	12811.975
3252.40088	12767.275
3254.67715	12763.675
3256.95205	12729.575
3259.22558	12715.475
3261.49775	12677.775
3263.76855	12646.075
3266.03799	12618.675
3268.30606	12617.475
3270.57277	12604.575
3272.83812	12564.775
3275.10211	12550.975
3277.36474	12527.875
3279.62601	12520.975
3281.88593	12485.475
3284.14448	12517.475
3286.40168	12501.275
3288.65753	12489.975
3290.91202	12457.175
3293.16516	12410.775
3295.41695	12398.575
3297.66738	12319.875
3299.91647	12249.775
3302.16421	12165.975
3304.4106	12112.675
3306.65564	12046.475
3308.89933	11959.075
3311.14169	11893.875
3313.38269	11777.275
3315.62236	11725.075
3317.86068	11616.575
3320.09766	11476.675
3322.3333	11351.975
3324.5676	11367.775
3326.80056	11182.275
3329.03219	11122.775
3331.26248	2.475
3333.49143	-0.325
3335.71905	-0.925
