Data from AgNPs_FTO_APTES_UA_2uM_CRN_1uM_R6G_10uM_NaF_0.1M_Addition_RamanShift__4__11-23-45-003.txt Node

Date: Wed Feb 02 11:23:45 GMT 2022
User: TCL
Spectrometer: QEP01345
Trigger mode: 4
Integration Time (sec): 7.000000E0
Scans to average: 10
Electric dark correction enabled: true
Nonlinearity correction enabled: false
Boxcar width: 0
XAxis mode: Raman Shifts
Number of Pixels in Spectrum: 1044
>>>>>Begin Spectral Data<<<<<
46.04893	1.15
50.45542	-0.75
54.85868	-1.05
59.25871	0.05
63.6555	81.85
68.04907	85.05
72.43941	86.75
76.82654	92.55
81.21044	93.95
85.59113	103.45
89.96862	100.45
94.34289	108.75
98.71396	110.15
103.08183	115.25
107.4465	118.55
111.80798	118.95
116.16626	126.55
120.52136	128.85
124.87327	128.45
129.222	140.35
133.56755	150.15
137.90993	159.75
142.24913	177.75
146.58517	203.15
150.91804	232.95
155.24774	275.75
159.57429	344.25
163.89768	436.85
168.21792	587.85
172.53501	802.45
176.84895	1107.05
181.15975	1561.35
185.46741	2191.05
189.77193	3013.85
194.07331	4020.35
198.37157	5176.75
202.6667	6355.75
206.9587	7570.15
211.24758	8739.45
215.53334	10019.05
219.81599	11315.15
224.09553	12794.65
228.37195	14448.05
232.64527	16147.25
236.91549	17918.85
241.18261	19641.75
245.44663	21184.75
249.70755	22530.85
253.96539	23691.45
258.22014	24669.85
262.4718	25445.75
266.72039	25957.35
270.96589	26149.75
275.20832	26035.55
279.44768	25719.85
283.68397	25367.45
287.91719	25132.95
292.14735	24949.45
296.37445	25033.35
300.59849	25266.55
304.81948	25584.25
309.03742	25780.15
313.25231	25764.95
317.46415	25389.45
321.67296	24753.45
325.87872	24183.45
330.08145	23884.65
334.28114	23757.75
338.47781	23818.15
342.67145	24057.15
346.86207	24428.95
351.04966	24931.05
355.23424	25461.95
359.4158	25990.65
363.59435	26284.85
367.76989	26473.15
371.94243	26541.85
376.11196	26539.05
380.27849	26516.65
384.44203	26649.25
388.60257	26806.45
392.76012	27098.75
396.91468	27413.15
401.06626	27898.85
405.21485	28167.15
409.36047	28103.55
413.50311	27859.15
417.64277	27731.25
421.77947	27907.45
425.9132	28038.15
430.04396	28142.55
434.17176	28164.55
438.2966	28333.55
442.41849	28856.45
446.53742	29832.35
450.6534	30869.65
454.76644	31410.35
458.87653	31408.45
462.98368	30879.45
467.08789	30271.15
471.18916	29526.95
475.2875	28783.25
479.38291	28345.55
483.4754	28204.45
487.56496	28070.05
491.6516	27713.75
495.73531	27379.55
499.81612	27184.05
503.89401	27306.05
507.96899	27323.15
512.04106	27152.05
516.11023	26877.15
520.1765	26583.25
524.23987	26438.55
528.30034	26294.85
532.35792	26051.55
536.41261	25625.35
540.46441	25129.15
544.51333	24886.55
548.55936	25149.55
552.60252	25768.05
556.64279	26669.85
560.6802	27368.25
564.71473	27715.65
568.7464	28206.25
572.7752	29069.85
576.80114	30019.55
580.82422	31223.95
584.84444	33221.55
588.86181	35797.65
592.87633	37906.05
596.888	37472.35
600.89682	34692.55
604.9028	33314.35
608.90594	35678.25
612.90624	38902.15
616.90371	36476.45
620.89834	29774.15
624.89015	26585.55
628.87913	26110.65
632.86528	26116.55
636.84862	25810.25
640.82913	25182.95
644.80683	24441.65
648.78172	24114.05
652.75379	24237.15
656.72306	24612.05
660.68952	24952.15
664.65319	24710.35
668.61405	24054.25
672.57211	23891.45
676.52738	24087.05
680.47986	24132.35
684.42955	23827.55
688.37646	23666.15
692.32058	23885.55
696.26192	24467.05
700.20048	25119.95
704.13626	25418.05
708.06928	25352.15
711.99952	25195.55
715.927	25339.75
719.85171	25624.65
723.77365	25595.35
727.69284	24975.15
731.60928	24392.65
735.52295	24241.35
739.43388	24289.75
743.34206	24403.85
747.24749	24617.65
751.15017	24923.85
755.05012	25426.45
758.94733	26233.85
762.8418	27677.65
766.73354	30013.85
770.62254	32109.75
774.50882	32496.15
778.39237	30859.45
782.27321	28477.35
786.15132	26477.05
790.02671	25263.45
793.89938	24778.15
797.76935	24556.15
801.6366	24466.95
805.50115	24437.75
809.36299	24242.85
813.22213	23991.45
817.07857	23793.65
820.93231	23589.85
824.78336	23367.45
828.63172	23319.85
832.47738	23328.85
836.32036	23426.75
840.16066	23554.55
843.99827	23715.55
847.8332	23609.65
851.66546	23460.05
855.49504	23387.65
859.32195	23376.75
863.1462	23219.25
866.96777	23076.55
870.78668	23022.05
874.60293	23017.25
878.41652	23096.75
882.22745	23292.75
886.03573	23433.55
889.84136	23483.95
893.64433	23352.15
897.44466	23227.15
901.24235	23154.55
905.0374	23130.95
908.8298	23020.55
912.61957	23073.55
916.40671	23325.25
920.19121	23771.35
923.97308	24210.15
927.75233	24580.25
931.52895	24433.95
935.30295	23848.95
939.07433	23181.75
942.84309	22712.65
946.60924	22486.55
950.37278	22426.15
954.13371	22359.45
957.89203	22246.65
961.64774	22181.45
965.40086	22180.95
969.15137	22082.55
972.89929	21917.95
976.64461	21872.55
980.38733	21872.05
984.12747	21953.55
987.86502	22120.05
991.59999	22412.45
995.33237	22883.45
999.06217	23729.65
1002.78939	24721.05
1006.51404	25444.65
1010.23611	25869.45
1013.95561	26149.85
1017.67255	26178.05
1021.38692	25756.15
1025.09872	25261.85
1028.80796	25308.45
1032.51465	26174.95
1036.21877	27127.75
1039.92035	27529.95
1043.61937	27224.85
1047.31584	26457.45
1051.00976	25559.75
1054.70114	25037.05
1058.38998	24843.35
1062.07627	24796.95
1065.76003	24849.45
1069.44126	25132.95
1073.11995	25630.95
1076.79611	26131.65
1080.46974	26438.75
1084.14085	26680.35
1087.80943	27084.75
1091.47549	27301.35
1095.13903	27271.65
1098.80005	26611.85
1102.45857	25759.45
1106.11456	25193.75
1109.76805	24950.75
1113.41903	24943.55
1117.06751	25056.95
1120.71348	25327.05
1124.35696	25749.15
1127.99793	26102.95
1131.63641	26387.25
1135.2724	26296.05
1138.90589	26141.25
1142.5369	26136.05
1146.16542	26323.25
1149.79145	26549.35
1153.415	26834.15
1157.03607	27409.85
1160.65467	28572.75
1164.27079	30498.85
1167.88443	32674.85
1171.49561	34878.45
1175.10432	37710.35
1178.71056	41622.95
1182.31434	45249.95
1185.91565	46705.75
1189.51451	45715.45
1193.11091	43506.05
1196.70485	41215.95
1200.29634	39223.35
1203.88538	37926.65
1207.47197	37284.05
1211.05612	36639.05
1214.63782	35856.45
1218.21708	34917.85
1221.79391	34096.45
1225.36829	33625.15
1228.94024	33168.65
1232.50976	32348.55
1236.07685	31403.85
1239.6415	30864.15
1243.20374	30710.85
1246.76355	30953.95
1250.32093	31560.35
1253.8759	32519.95
1257.42845	33742.05
1260.97859	35095.45
1264.52631	36514.35
1268.07163	37892.15
1271.61453	39356.65
1275.15503	40903.35
1278.69312	42578.15
1282.22882	44332.45
1285.76211	46395.45
1289.29301	48686.45
1292.82151	51342.25
1296.34761	54702.35
1299.87133	58737.35
1303.39266	63294.45
1306.9116	67385.15
1310.42815	70282.15
1313.94233	71261.15
1317.45412	69842.55
1320.96354	67194.15
1324.47058	64654.45
1327.97525	62706.55
1331.47754	61261.45
1334.97747	59902.35
1338.47502	58161.65
1341.97022	55864.85
1345.46305	53838.75
1348.95352	53087.45
1352.44163	54323.65
1355.92738	58003.05
1359.41078	63407.25
1362.89183	67909.05
1366.37053	68383.95
1369.84688	62748.65
1373.32088	53848.15
1376.79254	47269.05
1380.26186	44835.35
1383.72883	44719.25
1387.19347	44519.35
1390.65578	43534.35
1394.11575	43207.65
1397.57339	43926.95
1401.0287	45232.05
1404.48168	46283.45
1407.93234	46296.85
1411.38068	45218.35
1414.82669	43520.35
1418.27039	41559.45
1421.71177	39625.75
1425.15083	38000.25
1428.58758	37343.65
1432.02203	38010.25
1435.45416	39512.95
1438.88399	41016.05
1442.31151	41859.75
1445.73673	42137.25
1449.15965	42273.25
1452.58027	41917.35
1455.9986	41246.55
1459.41463	40909.15
1462.82837	41451.65
1466.23982	42472.95
1469.64898	43555.85
1473.05586	44355.75
1476.46045	44734.15
1479.86276	44668.05
1483.26279	44327.85
1486.66054	44227.15
1490.05602	44650.65
1493.44922	45222.15
1496.84016	45494.25
1500.22882	45903.05
1503.61521	46774.15
1506.99934	47996.75
1510.38121	49112.35
1513.76081	49578.85
1517.13816	48651.15
1520.51324	46972.85
1523.88607	45679.95
1527.25665	45368.15
1530.62498	45420.15
1533.99105	45057.25
1537.35488	44278.55
1540.71647	42933.15
1544.07581	41387.75
1547.4329	39830.55
1550.78776	38486.35
1554.14038	37552.85
1557.49077	37019.95
1560.83892	36649.85
1564.18484	36466.55
1567.52853	36667.45
1570.86999	37124.75
1574.20922	38053.25
1577.54624	38900.05
1580.88103	39461.15
1584.2136	40337.45
1587.54395	42574.55
1590.87208	46237.25
1594.19801	50372.25
1597.52172	53816.05
1600.84321	54279.55
1604.16251	50523.05
1607.47959	44515.05
1610.79447	38797.15
1614.10715	34164.25
1617.41763	31058.45
1620.7259	29323.85
1624.03199	28683.25
1627.33587	29021.55
1630.63757	30382.05
1633.93707	32995.45
1637.23439	37272.55
1640.52951	43960.55
1643.82246	52138.05
1647.11321	58491.75
1650.40179	59091.55
1653.68819	53042.35
1656.97241	43722.05
1660.25446	35450.05
1663.53433	29811.25
1666.81203	26540.15
1670.08756	24579.85
1673.36092	23406.95
1676.63211	22652.85
1679.90115	22082.75
1683.16801	21701.25
1686.43272	21407.25
1689.69527	21245.85
1692.95567	21086.05
1696.2139	21043.25
1699.46999	20905.95
1702.72392	20815.55
1705.97571	20771.35
1709.22535	20687.35
1712.47284	20674.95
1715.71819	20607.75
1718.96139	20571.35
1722.20246	20534.85
1725.44139	20429.65
1728.67818	20274.25
1731.91284	20077.75
1735.14537	19997.65
1738.37576	19888.95
1741.60403	19821.65
1744.83017	19743.35
1748.05418	19697.45
1751.27607	19605.65
1754.49584	19588.95
1757.71349	19592.25
1760.92903	19560.95
1764.14244	19573.55
1767.35375	19532.55
1770.56294	19477.35
1773.77002	19466.55
1776.97499	19424.35
1780.17785	19348.65
1783.37861	19335.25
1786.57727	19302.65
1789.77382	19254.65
1792.96828	19264.35
1796.16064	19238.25
1799.3509	19158.15
1802.53907	19147.45
1805.72514	19115.65
1808.90913	19037.35
1812.09102	19014.85
1815.27083	19019.95
1818.44856	19000.65
1821.6242	18953.05
1824.79776	18965.35
1827.96924	18957.85
1831.13864	18935.85
1834.30597	18993.15
1837.47122	18939.15
1840.6344	18976.15
1843.7955	18998.65
1846.95454	19005.05
1850.11151	18998.55
1853.26642	18972.35
1856.41926	18964.15
1859.57004	18977.75
1862.71876	18961.75
1865.86542	18937.05
1869.01003	18895.05
1872.15258	18947.05
1875.29308	18912.25
1878.43152	18904.05
1881.56792	18862.85
1884.70227	18853.25
1887.83457	18838.95
1890.96482	18803.25
1894.09304	18795.05
1897.21921	18758.85
1900.34335	18708.85
1903.46544	18663.85
1906.58551	18686.95
1909.70353	18609.35
1912.81953	18573.25
1915.93349	18538.25
1919.04543	18519.25
1922.15534	18467.45
1925.26322	18408.05
1928.36908	18355.15
1931.47292	18293.55
1934.57473	18209.45
1937.67453	18157.05
1940.77232	18153.45
1943.86808	18087.25
1946.96184	18062.85
1950.05358	18019.75
1953.14331	17977.25
1956.23103	17919.85
1959.31675	17874.55
1962.40046	17863.15
1965.48217	17789.55
1968.56188	17721.75
1971.63959	17678.75
1974.7153	17638.65
1977.78901	17593.95
1980.86073	17527.45
1983.93046	17495.65
1986.99819	17417.55
1990.06394	17374.25
1993.1277	17323.65
1996.18947	17261.35
1999.24925	17196.65
2002.30706	17175.95
2005.36288	17120.75
2008.41672	17084.55
2011.46859	17043.95
2014.51848	17016.75
2017.56639	16974.85
2020.61233	16917.25
2023.6563	16882.25
2026.6983	16879.75
2029.73833	16855.35
2032.7764	16824.35
2035.8125	16787.45
2038.84664	16784.25
2041.87881	16831.65
2044.90903	16752.15
2047.93729	16749.45
2050.96359	16728.65
2053.98794	16675.35
2057.01034	16668.15
2060.03078	16634.25
2063.04927	16643.85
2066.06582	16634.05
2069.08042	16608.05
2072.09307	16600.05
2075.10378	16559.75
2078.11255	16599.85
2081.11938	16585.55
2084.12426	16596.65
2087.12722	16548.45
2090.12824	16545.25
2093.12732	16563.35
2096.12447	16605.75
2099.11969	16615.35
2102.11299	16652.75
2105.10435	16649.95
2108.09379	16639.45
2111.08131	16659.95
2114.0669	16648.75
2117.05057	16631.05
2120.03233	16625.35
2123.01216	16692.05
2125.99008	16668.75
2128.96609	16618.85
2131.94018	16660.55
2134.91236	16656.55
2137.88263	16671.05
2140.851	16699.25
2143.81746	16709.75
2146.78201	16696.25
2149.74466	16666.95
2152.7054	16687.45
2155.66425	16672.75
2158.6212	16670.65
2161.57625	16682.35
2164.52941	16660.25
2167.48067	16687.45
2170.43004	16688.65
2173.37752	16669.85
2176.32311	16701.55
2179.26681	16699.85
2182.20863	16693.85
2185.14856	16706.35
2188.08661	16692.65
2191.02278	16713.85
2193.95707	16689.05
2196.88948	16715.85
2199.82001	16693.35
2202.74867	16713.15
2205.67545	16671.35
2208.60037	16685.65
2211.52341	16671.75
2214.44458	16650.65
2217.36388	16625.75
2220.28132	16618.55
2223.1969	16570.95
2226.11061	16544.65
2229.02246	16556.65
2231.93245	16539.75
2234.84058	16507.25
2237.74686	16486.65
2240.65128	16527.45
2243.55385	16433.05
2246.45456	16440.55
2249.35343	16384.25
2252.25044	16317.85
2255.14561	16337.95
2258.03893	16310.85
2260.93041	16284.45
2263.82004	16239.05
2266.70783	16222.85
2269.59378	16140.05
2272.4779	16140.25
2275.36017	16130.25
2278.24061	16089.55
2281.11922	16059.85
2283.996	16042.35
2286.87094	16040.35
2289.74405	16021.15
2292.61534	15971.85
2295.4848	15948.25
2298.35243	15975.35
2301.21824	16004.25
2304.08223	16016.95
2306.94439	16043.25
2309.80474	16031.85
2312.66327	16043.15
2315.51999	16030.75
2318.37489	16043.65
2321.22797	16032.65
2324.07925	16013.55
2326.92871	15996.45
2329.77637	16001.15
2332.62222	16025.85
2335.46626	16000.05
2338.3085	16013.35
2341.14893	16002.75
2343.98756	16029.75
2346.8244	16017.35
2349.65943	15974.15
2352.49267	15966.75
2355.32411	15976.85
2358.15376	16010.25
2360.98161	15962.55
2363.80768	15966.35
2366.63195	15937.05
2369.45444	15884.25
2372.27514	15877.55
2375.09405	15856.65
2377.91118	15844.45
2380.72652	15771.05
2383.54009	15752.95
2386.35187	15749.25
2389.16188	15713.65
2391.97011	15659.75
2394.77657	15654.15
2397.58125	15675.05
2400.38416	15651.95
2403.18529	15616.35
2405.98466	15577.75
2408.78226	15524.55
2411.57809	15514.05
2414.37216	15495.05
2417.16446	15495.45
2419.955	15474.35
2422.74378	15492.75
2425.5308	15476.25
2428.31606	15485.25
2431.09956	15472.75
2433.88131	15435.35
2436.6613	15447.65
2439.43954	15440.45
2442.21603	15419.25
2444.99077	15454.15
2447.76377	15448.35
2450.53501	15421.95
2453.30451	15466.05
2456.07226	15441.25
2458.83827	15460.65
2461.60254	15420.25
2464.36507	15480.15
2467.12586	15454.25
2469.88492	15452.05
2472.64224	15499.25
2475.39782	15469.55
2478.15167	15480.35
2480.90379	15496.65
2483.65417	15515.55
2486.40283	15520.25
2489.14976	15524.15
2491.89497	15520.85
2494.63845	15525.05
2497.3802	15499.25
2500.12024	15528.95
2502.85855	15508.95
2505.59514	15489.65
2508.33002	15511.75
2511.06318	15449.15
2513.79462	15455.15
2516.52435	15428.95
2519.25237	15413.05
2521.97867	15416.05
2524.70327	15432.85
2527.42616	15369.45
2530.14734	15378.95
2532.86681	15363.95
2535.58458	15423.65
2538.30065	15363.05
2541.01501	15345.25
2543.72768	15320.65
2546.43864	15317.05
2549.14791	15333.95
2551.85548	15341.95
2554.56136	15301.95
2557.26554	15307.95
2559.96803	15296.25
2562.66883	15311.95
2565.36794	15305.25
2568.06536	15320.35
2570.7611	15352.05
2573.45514	15293.25
2576.14751	15327.45
2578.83819	15324.15
2581.52719	15337.75
2584.21451	15312.75
2586.90015	15310.45
2589.58411	15303.65
2592.2664	15294.05
2594.94701	15258.25
2597.62594	15245.85
2600.30321	15219.25
2602.9788	15229.55
2605.65273	15216.75
2608.32498	15258.55
2610.99557	15226.65
2613.66449	15275.25
2616.33175	15255.75
2618.99734	15240.15
2621.66128	15258.25
2624.32355	15255.15
2626.98416	15271.35
2629.64311	15233.05
2632.30041	15246.65
2634.95605	15223.35
2637.61004	15224.85
2640.26238	15196.35
2642.91306	15153.45
2645.56209	15150.25
2648.20948	15153.35
2650.85521	15150.55
2653.4993	15147.15
2656.14175	15170.35
2658.78255	15215.85
2661.42171	15198.65
2664.05923	15184.85
2666.6951	15192.95
2669.32934	15258.95
2671.96194	15239.15
2674.59291	15257.75
2677.22224	15258.35
2679.84993	15243.65
2682.476	15234.35
2685.10043	15222.35
2687.72324	15199.25
2690.34441	15172.45
2692.96396	15167.65
2695.58188	15197.25
2698.19818	15211.25
2700.81285	15179.85
2703.4259	15172.45
2706.03733	15225.05
2708.64714	15223.15
2711.25533	15266.35
2713.86191	15246.95
2716.46687	15275.65
2719.07021	15251.35
2721.67194	15267.15
2724.27206	15238.65
2726.87057	15287.65
2729.46747	15267.45
2732.06276	15307.85
2734.65644	15331.35
2737.24852	15348.25
2739.83899	15329.65
2742.42786	15356.75
2745.01513	15333.95
2747.60079	15323.45
2750.18486	15318.25
2752.76733	15278.75
2755.3482	15308.95
2757.92747	15317.25
2760.50515	15322.85
2763.08123	15310.25
2765.65573	15307.15
2768.22863	15316.25
2770.79994	15301.65
2773.36967	15314.35
2775.9378	15290.45
2778.50435	15306.55
2781.06932	15309.75
2783.6327	15317.55
2786.1945	15293.95
2788.75471	15308.25
2791.31335	15242.65
2793.87041	15281.35
2796.42589	15208.05
2798.97979	15199.25
2801.53212	15184.05
2804.08288	15220.35
2806.63206	15177.25
2809.17967	15153.75
2811.72571	15113.05
2814.27018	15123.45
2816.81308	15103.75
2819.35442	15112.55
2821.89419	15108.15
2824.43239	15124.35
2826.96904	15105.45
2829.50412	15079.35
2832.03763	15042.35
2834.56959	15035.05
2837.1	15043.85
2839.62884	15061.05
2842.15613	15118.15
2844.68186	15166.45
2847.20604	15195.85
2849.72867	15229.35
2852.24974	15219.45
2854.76927	15236.65
2857.28724	15229.95
2859.80367	15249.15
2862.31855	15229.45
2864.83189	15192.45
2867.34368	15194.85
2869.85393	15200.15
2872.36264	15197.55
2874.8698	15253.95
2877.37543	15249.05
2879.87952	15324.85
2882.38207	15336.15
2884.88308	15330.95
2887.38256	15348.25
2889.88051	15363.85
2892.37692	15376.65
2894.8718	15365.85
2897.36515	15434.55
2899.85698	15399.15
2902.34727	15466.65
2904.83604	15438.95
2907.32328	15502.45
2909.809	15457.35
2912.29319	15474.45
2914.77587	15441.85
2917.25702	15459.95
2919.73665	15435.65
2922.21476	15449.55
2924.69136	15407.45
2927.16644	15464.45
2929.64	15423.05
2932.11205	15403.85
2934.58258	15349.05
2937.05161	15369.65
2939.51912	15332.75
2941.98513	15276.25
2944.44962	15225.05
2946.91261	15155.35
2949.37409	15172.85
2951.83407	15155.75
2954.29254	15140.45
2956.74951	15065.25
2959.20498	15057.05
2961.65895	15017.65
2964.11142	14992.95
2966.56239	14937.35
2969.01186	14911.05
2971.45984	14881.75
2973.90632	14851.85
2976.35131	14790.65
2978.7948	14736.75
2981.23681	14672.65
2983.67732	14635.75
2986.11635	14597.95
2988.55388	14550.85
2990.98993	14534.75
2993.4245	14479.95
2995.85758	14509.05
2998.28917	14435.15
3000.71928	14396.25
3003.14791	14399.25
3005.57506	14401.45
3008.00073	14333.85
3010.42493	14336.25
3012.84764	14321.55
3015.26888	14308.45
3017.68865	14302.95
3020.10694	14246.35
3022.52376	14220.95
3024.9391	14199.85
3027.35298	14164.15
3029.76539	14139.35
3032.17632	14135.55
3034.5858	14100.75
3036.9938	14127.75
3039.40034	14104.55
3041.80542	14107.65
3044.20903	14085.35
3046.61118	14064.05
3049.01187	14041.95
3051.4111	14044.55
3053.80888	14022.15
3056.20519	13956.55
3058.60005	13920.75
3060.99345	13907.55
3063.3854	13912.85
3065.7759	13880.75
3068.16494	13840.85
3070.55254	13822.75
3072.93868	13815.65
3075.32338	13731.05
3077.70662	13737.15
3080.08842	13718.85
3082.46878	13729.85
3084.84769	13693.75
3087.22515	13653.45
3089.60118	13680.45
3091.97576	13677.35
3094.3489	13647.15
3096.72061	13642.25
3099.09087	13686.85
3101.4597	13608.75
3103.82709	13625.75
3106.19305	13589.95
3108.55757	13556.95
3110.92066	13522.15
3113.28232	13514.65
3115.64255	13446.25
3118.00134	13443.35
3120.35871	13464.25
3122.71466	13419.05
3125.06917	13409.75
3127.42226	13369.75
3129.77393	13386.75
3132.12417	13385.05
3134.47299	13402.15
3136.82039	13386.25
3139.16636	13416.55
3141.51092	13359.95
3143.85406	13380.15
3146.19579	13375.45
3148.53609	13385.25
3150.87499	13385.55
3153.21246	13360.85
3155.54853	13382.25
3157.88318	13348.85
3160.21642	13389.25
3162.54826	13355.45
3164.87868	13387.25
3167.2077	13368.25
3169.5353	13345.25
3171.86151	13350.05
3174.18631	13347.35
3176.5097	13351.25
3178.83169	13340.85
3181.15228	13362.45
3183.47147	13267.85
3185.78926	13289.45
3188.10565	13291.15
3190.42065	13293.05
3192.73424	13322.55
3195.04645	13310.95
3197.35725	13278.15
3199.66667	13259.55
3201.97469	13272.05
3204.28132	13289.35
3206.58656	13285.45
3208.8904	13261.85
3211.19287	13268.25
3213.49394	13282.15
3215.79363	13269.45
3218.09193	13278.95
3220.38884	13276.85
3222.68438	13290.15
3224.97853	13265.15
3227.2713	13276.95
3229.56269	13271.65
3231.8527	13293.25
3234.14133	13259.25
3236.42858	13206.65
3238.71446	13216.15
3240.99896	13197.55
3243.28209	13199.25
3245.56384	13182.35
3247.84423	13225.45
3250.12324	13181.75
3252.40088	13191.95
3254.67715	13160.05
3256.95205	13130.05
3259.22558	13100.45
3261.49775	13105.15
3263.76855	13083.45
3266.03799	13054.15
3268.30606	13043.45
3270.57277	13035.25
3272.83812	13003.15
3275.10211	12982.95
3277.36474	12983.65
3279.62601	13001.85
3281.88593	12986.75
3284.14448	13018.25
3286.40168	13022.35
3288.65753	12990.05
3290.91202	12984.55
3293.16516	12926.05
3295.41695	12898.85
3297.66738	12840.15
3299.91647	12781.45
3302.16421	12678.15
3304.4106	12668.45
3306.65564	12547.75
3308.89933	12510.15
3311.14169	12425.75
3313.38269	12347.65
3315.62236	12263.45
3317.86068	12130.65
3320.09766	12028.05
3322.3333	11951.05
3324.5676	11954.35
3326.80056	11745.35
3329.03219	11721.55
3331.26248	1.95
3333.49143	-0.25
3335.71905	-0.85
