Data from AgNPs_FTO_APTES_UA_5uM_CRN_100uM_R6G_10uM_NaF_0.1M_Addition_RamanShift__7__14-44-26-873.txt Node

Date: Mon Feb 07 14:44:26 GMT 2022
User: TCL
Spectrometer: QEP01345
Trigger mode: 4
Integration Time (sec): 7.000000E0
Scans to average: 10
Electric dark correction enabled: true
Nonlinearity correction enabled: false
Boxcar width: 0
XAxis mode: Raman Shifts
Number of Pixels in Spectrum: 1044
>>>>>Begin Spectral Data<<<<<
46.04893	-0.825
50.45542	-0.825
54.85868	-0.625
59.25871	0.175
63.6555	66.675
68.04907	70.875
72.43941	76.275
76.82654	74.975
81.21044	82.275
85.59113	82.775
89.96862	87.875
94.34289	87.075
98.71396	90.375
103.08183	94.675
107.4465	96.275
111.80798	101.475
116.16626	101.175
120.52136	110.975
124.87327	112.575
129.222	121.775
133.56755	130.175
137.90993	143.275
142.24913	156.575
146.58517	179.675
150.91804	212.775
155.24774	256.675
159.57429	322.675
163.89768	422.875
168.21792	569.775
172.53501	776.075
176.84895	1084.275
181.15975	1529.075
185.46741	2155.775
189.77193	2964.075
194.07331	3962.275
198.37157	5119.075
202.6667	6314.375
206.9587	7493.075
211.24758	8652.575
215.53334	9813.275
219.81599	11065.675
224.09553	12395.375
228.37195	13861.075
232.64527	15489.575
236.91549	17137.775
241.18261	18796.075
245.44663	20415.375
249.70755	21906.075
253.96539	23190.975
258.22014	24307.575
262.4718	25245.275
266.72039	25922.375
270.96589	26261.575
275.20832	26381.075
279.44768	26336.075
283.68397	26253.875
287.91719	26169.575
292.14735	26113.675
296.37445	26173.575
300.59849	26300.575
304.81948	26327.775
309.03742	26210.975
313.25231	25905.775
317.46415	25329.475
321.67296	24677.575
325.87872	24096.175
330.08145	23803.275
334.28114	23707.475
338.47781	23770.875
342.67145	23991.475
346.86207	24243.575
351.04966	24538.375
355.23424	24880.575
359.4158	25200.475
363.59435	25438.075
367.76989	25629.675
371.94243	25753.875
376.11196	25818.075
380.27849	25815.175
384.44203	25940.575
388.60257	26097.375
392.76012	26398.375
396.91468	26801.175
401.06626	27245.375
405.21485	27512.175
409.36047	27478.675
413.50311	27235.775
417.64277	27159.375
421.77947	27247.075
425.9132	27483.675
430.04396	27634.475
434.17176	27763.675
438.2966	27880.875
442.41849	28346.475
446.53742	28987.375
450.6534	29761.375
454.76644	30348.075
458.87653	30619.275
462.98368	30639.575
467.08789	30403.375
471.18916	30134.275
475.2875	30037.975
479.38291	30082.575
483.4754	30061.575
487.56496	29694.075
491.6516	28952.175
495.73531	28237.475
499.81612	27792.075
503.89401	27715.875
507.96899	27830.575
512.04106	27866.075
516.11023	27594.975
520.1765	27164.975
524.23987	26667.275
528.30034	26240.675
532.35792	25954.675
536.41261	25727.375
540.46441	25583.075
544.51333	25644.375
548.55936	26042.775
552.60252	26661.575
556.64279	27440.675
560.6802	28045.375
564.71473	28617.975
568.7464	29426.575
572.7752	30717.175
576.80114	32149.675
580.82422	33351.575
584.84444	34442.875
588.86181	35596.275
592.87633	36461.875
596.888	35735.175
600.89682	33943.375
604.9028	32982.575
608.90594	33379.975
612.90624	33901.975
616.90371	31626.675
620.89834	27693.375
624.89015	26062.875
628.87913	26036.575
632.86528	26306.575
636.84862	26299.975
640.82913	25872.575
644.80683	25327.675
648.78172	24929.275
652.75379	24848.275
656.72306	25019.875
660.68952	25198.275
664.65319	25043.375
668.61405	24718.075
672.57211	24633.075
676.52738	24741.875
680.47986	24756.075
684.42955	24636.475
688.37646	24545.075
692.32058	24606.675
696.26192	24959.975
700.20048	25272.375
704.13626	25533.075
708.06928	25721.775
711.99952	25736.075
715.927	25689.675
719.85171	25656.875
723.77365	25460.275
727.69284	25073.175
731.60928	24703.175
735.52295	24541.175
739.43388	24461.075
743.34206	24504.775
747.24749	24703.275
751.15017	25030.475
755.05012	25592.075
758.94733	26426.875
762.8418	27679.275
766.73354	29329.375
770.62254	30547.375
774.50882	30334.975
778.39237	28819.675
782.27321	27024.075
786.15132	25695.475
790.02671	24879.175
793.89938	24423.175
797.76935	24186.975
801.6366	24164.075
805.50115	24121.875
809.36299	24002.575
813.22213	23904.875
817.07857	23852.775
820.93231	23793.775
824.78336	23618.275
828.63172	23360.075
832.47738	23207.675
836.32036	23138.975
840.16066	23166.775
843.99827	23151.675
847.8332	23106.575
851.66546	23113.175
855.49504	23141.075
859.32195	23129.275
863.1462	23074.275
866.96777	22996.275
870.78668	22947.175
874.60293	22905.275
878.41652	22863.075
882.22745	22928.375
886.03573	22979.875
889.84136	22959.275
893.64433	22957.575
897.44466	22872.075
901.24235	22817.375
905.0374	22775.275
908.8298	22792.075
912.61957	22895.275
916.40671	23235.375
920.19121	23730.475
923.97308	23989.875
927.75233	23787.275
931.52895	23328.775
935.30295	22812.475
939.07433	22355.075
942.84309	22077.575
946.60924	21853.775
950.37278	21781.475
954.13371	21793.775
957.89203	21867.575
961.64774	21867.075
965.40086	21868.675
969.15137	21715.575
972.89929	21550.575
976.64461	21382.175
980.38733	21257.775
984.12747	21228.075
987.86502	21314.175
991.59999	21371.375
995.33237	21493.975
999.06217	21725.075
1002.78939	22061.675
1006.51404	22450.775
1010.23611	22804.075
1013.95561	23103.575
1017.67255	23177.975
1021.38692	22965.775
1025.09872	22601.075
1028.80796	22378.375
1032.51465	22254.775
1036.21877	22283.875
1039.92035	22398.875
1043.61937	22554.075
1047.31584	22595.875
1051.00976	22741.075
1054.70114	22908.675
1058.38998	23144.275
1062.07627	23476.775
1065.76003	23915.375
1069.44126	24295.375
1073.11995	24630.075
1076.79611	24912.475
1080.46974	24976.575
1084.14085	25071.175
1087.80943	25263.475
1091.47549	25593.575
1095.13903	25740.575
1098.80005	25477.975
1102.45857	24850.575
1106.11456	24194.375
1109.76805	23802.375
1113.41903	23738.975
1117.06751	23836.375
1120.71348	24114.675
1124.35696	24364.675
1127.99793	24729.075
1131.63641	24937.775
1135.2724	24939.675
1138.90589	24985.175
1142.5369	25266.475
1146.16542	25671.275
1149.79145	26154.275
1153.415	26668.675
1157.03607	27263.775
1160.65467	28388.875
1164.27079	30033.275
1167.88443	31882.275
1171.49561	33615.275
1175.10432	35449.775
1178.71056	37605.575
1182.31434	39597.675
1185.91565	40639.875
1189.51451	40603.475
1193.11091	39953.975
1196.70485	38992.875
1200.29634	37768.275
1203.88538	37162.875
1207.47197	37238.975
1211.05612	37322.275
1214.63782	36705.675
1218.21708	35191.575
1221.79391	33412.575
1225.36829	32104.775
1228.94024	31150.675
1232.50976	30623.075
1236.07685	30231.975
1239.6415	30086.275
1243.20374	30175.375
1246.76355	30495.175
1250.32093	30929.275
1253.8759	31590.575
1257.42845	32470.275
1260.97859	33379.775
1264.52631	34293.175
1268.07163	35254.275
1271.61453	36245.475
1275.15503	37424.275
1278.69312	38850.875
1282.22882	40487.875
1285.76211	42420.775
1289.29301	44778.775
1292.82151	47675.575
1296.34761	51039.575
1299.87133	54640.175
1303.39266	57669.475
1306.9116	59703.675
1310.42815	60711.975
1313.94233	60730.875
1317.45412	60368.475
1320.96354	60086.675
1324.47058	60249.275
1327.97525	60592.575
1331.47754	60806.975
1334.97747	60584.375
1338.47502	59934.075
1341.97022	58942.375
1345.46305	57722.775
1348.95352	56334.575
1352.44163	55218.175
1355.92738	54861.675
1359.41078	55312.475
1362.89183	55733.275
1366.37053	54657.975
1369.84688	51320.775
1373.32088	46699.275
1376.79254	43490.575
1380.26186	42794.375
1383.72883	43659.175
1387.19347	44464.975
1390.65578	44553.675
1394.11575	44563.775
1397.57339	45172.975
1401.0287	46105.375
1404.48168	46678.475
1407.93234	46182.075
1411.38068	44535.275
1414.82669	42104.375
1418.27039	39508.275
1421.71177	37051.675
1425.15083	35324.475
1428.58758	34461.275
1432.02203	34743.475
1435.45416	35966.975
1438.88399	37517.975
1442.31151	38784.475
1445.73673	39635.375
1449.15965	40358.175
1452.58027	40819.275
1455.9986	41033.275
1459.41463	41375.475
1462.82837	41814.075
1466.23982	42297.575
1469.64898	42856.075
1473.05586	43019.275
1476.46045	42890.675
1479.86276	42319.075
1483.26279	41633.075
1486.66054	41182.675
1490.05602	41139.575
1493.44922	41288.775
1496.84016	41580.075
1500.22882	42002.675
1503.61521	42641.975
1506.99934	43388.775
1510.38121	44114.475
1513.76081	44475.175
1517.13816	44434.775
1520.51324	44373.175
1523.88607	44722.875
1527.25665	45396.875
1530.62498	45920.075
1533.99105	45860.275
1537.35488	45160.975
1540.71647	43746.975
1544.07581	42050.375
1547.4329	40316.475
1550.78776	38848.675
1554.14038	37817.075
1557.49077	37203.775
1560.83892	36815.175
1564.18484	36630.975
1567.52853	36666.775
1570.86999	37168.175
1574.20922	38256.975
1577.54624	39532.975
1580.88103	40570.875
1584.2136	41671.975
1587.54395	43352.075
1590.87208	45574.275
1594.19801	47825.375
1597.52172	49553.775
1600.84321	49224.675
1604.16251	46293.875
1607.47959	42166.775
1610.79447	38103.975
1614.10715	34571.275
1617.41763	31776.175
1620.7259	29856.675
1624.03199	28877.675
1627.33587	28932.675
1630.63757	30039.475
1633.93707	32486.775
1637.23439	36505.475
1640.52951	42184.575
1643.82246	48761.975
1647.11321	53841.875
1650.40179	54509.575
1653.68819	50117.475
1656.97241	42816.075
1660.25446	35625.575
1663.53433	30165.375
1666.81203	26520.675
1670.08756	24188.175
1673.36092	22736.775
1676.63211	21819.275
1679.90115	21134.475
1683.16801	20677.575
1686.43272	20315.675
1689.69527	20037.275
1692.95567	19843.075
1696.2139	19644.575
1699.46999	19514.375
1702.72392	19445.275
1705.97571	19279.975
1709.22535	19202.475
1712.47284	19139.775
1715.71819	19114.975
1718.96139	19033.475
1722.20246	18916.175
1725.44139	18810.475
1728.67818	18649.175
1731.91284	18509.975
1735.14537	18400.375
1738.37576	18311.675
1741.60403	18208.275
1744.83017	18153.975
1748.05418	18058.175
1751.27607	18029.675
1754.49584	17959.875
1757.71349	17963.675
1760.92903	17968.475
1764.14244	17905.575
1767.35375	17874.575
1770.56294	17807.975
1773.77002	17766.775
1776.97499	17657.975
1780.17785	17655.175
1783.37861	17629.575
1786.57727	17574.975
1789.77382	17521.575
1792.96828	17506.375
1796.16064	17420.675
1799.3509	17368.075
1802.53907	17340.075
1805.72514	17276.775
1808.90913	17203.675
1812.09102	17168.575
1815.27083	17099.175
1818.44856	17073.675
1821.6242	17035.475
1824.79776	16992.075
1827.96924	16982.175
1831.13864	16942.375
1834.30597	16985.075
1837.47122	16944.775
1840.6344	16899.475
1843.7955	16918.875
1846.95454	16877.875
1850.11151	16822.375
1853.26642	16843.975
1856.41926	16850.375
1859.57004	16810.875
1862.71876	16792.575
1865.86542	16751.575
1869.01003	16720.675
1872.15258	16670.075
1875.29308	16635.375
1878.43152	16617.975
1881.56792	16612.175
1884.70227	16580.175
1887.83457	16543.575
1890.96482	16511.475
1894.09304	16481.275
1897.21921	16439.675
1900.34335	16437.675
1903.46544	16432.075
1906.58551	16379.075
1909.70353	16371.075
1912.81953	16298.975
1915.93349	16279.575
1919.04543	16227.875
1922.15534	16194.475
1925.26322	16124.775
1928.36908	16067.875
1931.47292	16037.875
1934.57473	16014.875
1937.67453	15975.675
1940.77232	15893.575
1943.86808	15865.975
1946.96184	15782.675
1950.05358	15739.975
1953.14331	15717.675
1956.23103	15692.575
1959.31675	15637.775
1962.40046	15547.775
1965.48217	15501.075
1968.56188	15452.975
1971.63959	15402.575
1974.7153	15327.075
1977.78901	15269.675
1980.86073	15240.975
1983.93046	15141.575
1986.99819	15106.175
1990.06394	15033.875
1993.1277	15030.875
1996.18947	14978.275
1999.24925	14916.675
2002.30706	14878.175
2005.36288	14855.475
2008.41672	14776.775
2011.46859	14707.775
2014.51848	14670.275
2017.56639	14644.175
2020.61233	14599.875
2023.6563	14562.675
2026.6983	14501.575
2029.73833	14443.675
2032.7764	14426.675
2035.8125	14369.975
2038.84664	14369.275
2041.87881	14320.075
2044.90903	14291.675
2047.93729	14257.775
2050.96359	14226.475
2053.98794	14200.375
2057.01034	14203.975
2060.03078	14208.475
2063.04927	14163.875
2066.06582	14172.275
2069.08042	14139.075
2072.09307	14136.275
2075.10378	14105.475
2078.11255	14095.975
2081.11938	14087.375
2084.12426	14070.275
2087.12722	14103.375
2090.12824	14061.375
2093.12732	14030.775
2096.12447	14045.975
2099.11969	14018.175
2102.11299	14026.575
2105.10435	14017.675
2108.09379	14014.575
2111.08131	14049.175
2114.0669	14013.375
2117.05057	14068.375
2120.03233	14053.075
2123.01216	14032.975
2125.99008	14037.975
2128.96609	14026.275
2131.94018	14040.075
2134.91236	14014.475
2137.88263	14026.275
2140.851	14014.875
2143.81746	14029.575
2146.78201	14000.675
2149.74466	13980.375
2152.7054	13972.675
2155.66425	13963.275
2158.6212	13946.175
2161.57625	13919.175
2164.52941	13922.675
2167.48067	13906.475
2170.43004	13908.875
2173.37752	13889.975
2176.32311	13874.775
2179.26681	13867.775
2182.20863	13883.375
2185.14856	13862.475
2188.08661	13877.975
2191.02278	13867.375
2193.95707	13834.975
2196.88948	13835.775
2199.82001	13793.675
2202.74867	13767.075
2205.67545	13751.575
2208.60037	13705.675
2211.52341	13681.475
2214.44458	13677.475
2217.36388	13644.975
2220.28132	13609.375
2223.1969	13566.875
2226.11061	13583.775
2229.02246	13568.275
2231.93245	13506.575
2234.84058	13474.075
2237.74686	13422.575
2240.65128	13440.575
2243.55385	13384.875
2246.45456	13382.775
2249.35343	13327.675
2252.25044	13311.575
2255.14561	13268.875
2258.03893	13202.675
2260.93041	13224.275
2263.82004	13153.775
2266.70783	13137.875
2269.59378	13054.775
2272.4779	13015.875
2275.36017	12976.475
2278.24061	12922.875
2281.11922	12887.575
2283.996	12920.575
2286.87094	12866.175
2289.74405	12851.175
2292.61534	12817.075
2295.4848	12808.775
2298.35243	12807.275
2301.21824	12788.675
2304.08223	12779.875
2306.94439	12778.275
2309.80474	12786.475
2312.66327	12759.475
2315.51999	12750.775
2318.37489	12698.075
2321.22797	12675.675
2324.07925	12666.675
2326.92871	12689.875
2329.77637	12631.275
2332.62222	12588.575
2335.46626	12572.975
2338.3085	12579.475
2341.14893	12583.675
2343.98756	12579.875
2346.8244	12557.575
2349.65943	12543.775
2352.49267	12515.475
2355.32411	12520.575
2358.15376	12511.575
2360.98161	12509.275
2363.80768	12508.175
2366.63195	12534.675
2369.45444	12488.275
2372.27514	12479.075
2375.09405	12463.775
2377.91118	12392.775
2380.72652	12369.075
2383.54009	12355.675
2386.35187	12374.475
2389.16188	12283.575
2391.97011	12264.475
2394.77657	12232.975
2397.58125	12224.375
2400.38416	12207.675
2403.18529	12193.475
2405.98466	12173.275
2408.78226	12133.175
2411.57809	12122.075
2414.37216	12120.475
2417.16446	12132.875
2419.955	12116.775
2422.74378	12092.675
2425.5308	12083.575
2428.31606	12060.975
2431.09956	12043.275
2433.88131	12034.475
2436.6613	12041.775
2439.43954	12017.475
2442.21603	12017.975
2444.99077	12016.275
2447.76377	11986.475
2450.53501	11983.175
2453.30451	11962.675
2456.07226	11949.275
2458.83827	11951.675
2461.60254	11971.975
2464.36507	11928.175
2467.12586	11946.675
2469.88492	11902.275
2472.64224	11924.175
2475.39782	11926.275
2478.15167	11937.675
2480.90379	11906.575
2483.65417	11910.975
2486.40283	11903.475
2489.14976	11935.775
2491.89497	11923.775
2494.63845	11940.275
2497.3802	11929.175
2500.12024	11911.275
2502.85855	11902.675
2505.59514	11878.475
2508.33002	11876.175
2511.06318	11881.275
2513.79462	11862.875
2516.52435	11843.475
2519.25237	11856.775
2521.97867	11836.575
2524.70327	11824.275
2527.42616	11802.075
2530.14734	11799.275
2532.86681	11800.775
2535.58458	11796.275
2538.30065	11750.975
2541.01501	11738.775
2543.72768	11753.275
2546.43864	11738.675
2549.14791	11707.775
2551.85548	11711.275
2554.56136	11667.175
2557.26554	11668.275
2559.96803	11644.575
2562.66883	11666.075
2565.36794	11631.675
2568.06536	11608.375
2570.7611	11594.775
2573.45514	11609.075
2576.14751	11609.875
2578.83819	11555.575
2581.52719	11567.975
2584.21451	11541.075
2586.90015	11547.875
2589.58411	11532.175
2592.2664	11515.875
2594.94701	11532.675
2597.62594	11499.575
2600.30321	11503.675
2602.9788	11489.475
2605.65273	11503.175
2608.32498	11515.675
2610.99557	11472.475
2613.66449	11508.775
2616.33175	11531.375
2618.99734	11492.075
2621.66128	11480.575
2624.32355	11445.375
2626.98416	11438.875
2629.64311	11413.675
2632.30041	11443.675
2634.95605	11404.875
2637.61004	11414.375
2640.26238	11414.975
2642.91306	11410.575
2645.56209	11394.775
2648.20948	11410.675
2650.85521	11423.675
2653.4993	11430.375
2656.14175	11415.275
2658.78255	11417.975
2661.42171	11416.075
2664.05923	11454.075
2666.6951	11452.575
2669.32934	11497.775
2671.96194	11471.275
2674.59291	11450.175
2677.22224	11454.375
2679.84993	11430.775
2682.476	11442.275
2685.10043	11418.375
2687.72324	11404.675
2690.34441	11424.075
2692.96396	11386.075
2695.58188	11410.375
2698.19818	11407.175
2700.81285	11426.475
2703.4259	11442.275
2706.03733	11493.375
2708.64714	11463.875
2711.25533	11441.375
2713.86191	11448.675
2716.46687	11488.575
2719.07021	11474.475
2721.67194	11455.675
2724.27206	11463.775
2726.87057	11506.675
2729.46747	11502.875
2732.06276	11502.775
2734.65644	11487.775
2737.24852	11502.575
2739.83899	11459.575
2742.42786	11485.175
2745.01513	11492.275
2747.60079	11442.775
2750.18486	11447.675
2752.76733	11439.675
2755.3482	11407.075
2757.92747	11423.175
2760.50515	11445.975
2763.08123	11407.675
2765.65573	11402.475
2768.22863	11397.775
2770.79994	11375.775
2773.36967	11411.875
2775.9378	11394.475
2778.50435	11425.675
2781.06932	11406.775
2783.6327	11410.275
2786.1945	11437.775
2788.75471	11425.175
2791.31335	11413.275
2793.87041	11389.175
2796.42589	11329.675
2798.97979	11364.075
2801.53212	11325.275
2804.08288	11290.075
2806.63206	11274.375
2809.17967	11234.175
2811.72571	11241.475
2814.27018	11204.075
2816.81308	11169.775
2819.35442	11141.575
2821.89419	11106.875
2824.43239	11146.275
2826.96904	11113.175
2829.50412	11109.475
2832.03763	11082.475
2834.56959	11086.075
2837.1	11084.175
2839.62884	11074.875
2842.15613	11112.175
2844.68186	11137.975
2847.20604	11132.875
2849.72867	11153.575
2852.24974	11143.075
2854.76927	11160.175
2857.28724	11133.675
2859.80367	11110.675
2862.31855	11073.075
2864.83189	11060.275
2867.34368	11049.875
2869.85393	11045.775
2872.36264	11003.475
2874.8698	10986.975
2877.37543	10973.375
2879.87952	10974.975
2882.38207	10965.975
2884.88308	10954.675
2887.38256	10950.675
2889.88051	10974.075
2892.37692	10958.375
2894.8718	10982.375
2897.36515	10980.075
2899.85698	10967.175
2902.34727	11007.275
2904.83604	10996.875
2907.32328	11013.275
2909.809	10995.675
2912.29319	11000.075
2914.77587	11023.475
2917.25702	11022.275
2919.73665	11012.575
2922.21476	11003.475
2924.69136	11002.075
2927.16644	10994.775
2929.64	10990.275
2932.11205	10940.875
2934.58258	10928.375
2937.05161	10952.875
2939.51912	10977.575
2941.98513	10931.575
2944.44962	10895.075
2946.91261	10866.275
2949.37409	10867.575
2951.83407	10803.475
2954.29254	10786.375
2956.74951	10798.575
2959.20498	10773.375
2961.65895	10739.775
2964.11142	10739.275
2966.56239	10735.375
2969.01186	10694.475
2971.45984	10691.075
2973.90632	10675.275
2976.35131	10650.175
2978.7948	10630.675
2981.23681	10588.375
2983.67732	10555.175
2986.11635	10508.675
2988.55388	10481.875
2990.98993	10463.775
2993.4245	10401.875
2995.85758	10368.975
2998.28917	10350.275
3000.71928	10335.375
3003.14791	10311.575
3005.57506	10271.375
3008.00073	10231.375
3010.42493	10135.075
3012.84764	10221.975
3015.26888	10194.975
3017.68865	10135.675
3020.10694	10125.175
3022.52376	10109.875
3024.9391	10109.675
3027.35298	10097.075
3029.76539	10076.875
3032.17632	10042.475
3034.5858	10044.175
3036.9938	10036.775
3039.40034	10046.475
3041.80542	10028.775
3044.20903	10032.175
3046.61118	10017.575
3049.01187	9994.475
3051.4111	9971.075
3053.80888	9933.575
3056.20519	9928.775
3058.60005	9880.275
3060.99345	9830.875
3063.3854	9812.375
3065.7759	9787.875
3068.16494	9736.275
3070.55254	9698.775
3072.93868	9664.375
3075.32338	9637.075
3077.70662	9586.275
3080.08842	9575.675
3082.46878	9556.175
3084.84769	9544.075
3087.22515	9503.175
3089.60118	9513.475
3091.97576	9515.675
3094.3489	9494.675
3096.72061	9488.075
3099.09087	9476.375
3101.4597	9477.175
3103.82709	9441.675
3106.19305	9457.775
3108.55757	9436.575
3110.92066	9412.675
3113.28232	9380.375
3115.64255	9369.675
3118.00134	9369.775
3120.35871	9327.375
3122.71466	9279.575
3125.06917	9267.475
3127.42226	9261.275
3129.77393	9243.975
3132.12417	9200.475
3134.47299	9201.475
3136.82039	9189.375
3139.16636	9184.075
3141.51092	9172.175
3143.85406	9161.775
3146.19579	9173.375
3148.53609	9153.875
3150.87499	9144.875
3153.21246	9140.475
3155.54853	9166.075
3157.88318	9161.075
3160.21642	9177.575
3162.54826	9156.975
3164.87868	9133.475
3167.2077	9149.975
3169.5353	9159.175
3171.86151	9143.875
3174.18631	9135.675
3176.5097	9143.775
3178.83169	9103.475
3181.15228	9113.275
3183.47147	9083.175
3185.78926	9069.175
3188.10565	9058.775
3190.42065	9040.475
3192.73424	9032.275
3195.04645	8994.075
3197.35725	8975.075
3199.66667	8983.775
3201.97469	8969.275
3204.28132	8934.375
3206.58656	8967.975
3208.8904	8971.075
3211.19287	8948.375
3213.49394	8957.275
3215.79363	8948.475
3218.09193	8952.375
3220.38884	8936.575
3222.68438	8954.875
3224.97853	8954.975
3227.2713	8910.275
3229.56269	8917.875
3231.8527	8900.375
3234.14133	8872.875
3236.42858	8864.775
3238.71446	8850.775
3240.99896	8828.875
3243.28209	8841.075
3245.56384	8795.875
3247.84423	8811.075
3250.12324	8775.875
3252.40088	8761.375
3254.67715	8761.275
3256.95205	8715.075
3259.22558	8742.375
3261.49775	8707.975
3263.76855	8661.375
3266.03799	8665.875
3268.30606	8625.075
3270.57277	8586.275
3272.83812	8578.575
3275.10211	8563.675
3277.36474	8551.475
3279.62601	8532.775
3281.88593	8521.175
3284.14448	8542.375
3286.40168	8542.175
3288.65753	8544.075
3290.91202	8516.975
3293.16516	8506.975
3295.41695	8488.075
3297.66738	8443.375
3299.91647	8378.975
3302.16421	8312.675
3304.4106	8275.475
3306.65564	8212.875
3308.89933	8143.575
3311.14169	8105.175
3313.38269	8012.375
3315.62236	7960.475
3317.86068	7888.675
3320.09766	7811.775
3322.3333	7757.175
3324.5676	7729.675
3326.80056	7597.875
3329.03219	7549.975
3331.26248	2.975
3333.49143	-1.625
3335.71905	-0.425
