Data from AgNPs_FTO_APTES_UA_5uM_CRN_50uM_R6G_10uM_NaF_0.1M_Addition_RamanShift__7__13-50-46-807.txt Node

Date: Mon Feb 07 13:50:46 GMT 2022
User: TCL
Spectrometer: QEP01345
Trigger mode: 4
Integration Time (sec): 7.000000E0
Scans to average: 10
Electric dark correction enabled: true
Nonlinearity correction enabled: false
Boxcar width: 0
XAxis mode: Raman Shifts
Number of Pixels in Spectrum: 1044
>>>>>Begin Spectral Data<<<<<
46.04893	-0.0875
50.45542	-0.7875
54.85868	-0.5875
59.25871	-0.2875
63.6555	80.1125
68.04907	84.4125
72.43941	91.1125
76.82654	92.2125
81.21044	95.2125
85.59113	100.1125
89.96862	105.6125
94.34289	103.5125
98.71396	110.7125
103.08183	110.9125
107.4465	118.8125
111.80798	117.4125
116.16626	122.9125
120.52136	127.2125
124.87327	137.2125
129.222	146.6125
133.56755	158.3125
137.90993	179.2125
142.24913	192.2125
146.58517	223.2125
150.91804	262.5125
155.24774	318.7125
159.57429	397.8125
163.89768	525.1125
168.21792	705.4125
172.53501	957.8125
176.84895	1349.1125
181.15975	1903.3125
185.46741	2666.0125
189.77193	3688.0125
194.07331	4920.1125
198.37157	6336.9125
202.6667	7821.8125
206.9587	9283.5125
211.24758	10765.5125
215.53334	12214.4125
219.81599	13728.0125
224.09553	15408.4125
228.37195	17217.1125
232.64527	19198.4125
236.91549	21331.1125
241.18261	23377.5125
245.44663	25305.2125
249.70755	27115.3125
253.96539	28664.2125
258.22014	30013.1125
262.4718	31095.2125
266.72039	31881.1125
270.96589	32286.7125
275.20832	32425.1125
279.44768	32305.1125
283.68397	32108.6125
287.91719	31897.0125
292.14735	31840.1125
296.37445	31884.4125
300.59849	31968.9125
304.81948	32107.5125
309.03742	32034.1125
313.25231	31730.0125
317.46415	31134.0125
321.67296	30406.6125
325.87872	29774.4125
330.08145	29392.8125
334.28114	29308.4125
338.47781	29419.7125
342.67145	29662.8125
346.86207	29984.6125
351.04966	30427.8125
355.23424	30878.8125
359.4158	31315.3125
363.59435	31638.2125
367.76989	31912.9125
371.94243	32026.3125
376.11196	32049.4125
380.27849	32101.4125
384.44203	32138.7125
388.60257	32325.0125
392.76012	32808.0125
396.91468	33399.9125
401.06626	33937.4125
405.21485	34251.4125
409.36047	34170.5125
413.50311	33817.2125
417.64277	33766.8125
421.77947	33928.8125
425.9132	34192.6125
430.04396	34403.8125
434.17176	34586.9125
438.2966	34766.2125
442.41849	35310.1125
446.53742	36249.3125
450.6534	37305.2125
454.76644	38014.2125
458.87653	38300.5125
462.98368	38155.0125
467.08789	37821.2125
471.18916	37321.4125
475.2875	37001.5125
479.38291	37066.2125
483.4754	36976.1125
487.56496	36519.7125
491.6516	35724.6125
495.73531	34779.8125
499.81612	34079.6125
503.89401	34046.6125
507.96899	34133.9125
512.04106	34116.4125
516.11023	33767.0125
520.1765	33224.2125
524.23987	32645.4125
528.30034	32135.7125
532.35792	31796.2125
536.41261	31432.0125
540.46441	31195.9125
544.51333	31239.4125
548.55936	31646.1125
552.60252	32419.4125
556.64279	33392.6125
560.6802	34253.3125
564.71473	35011.5125
568.7464	36099.5125
572.7752	37872.7125
576.80114	39819.1125
580.82422	41475.5125
584.84444	43274.2125
588.86181	45511.2125
592.87633	47366.7125
596.888	46554.1125
600.89682	43563.8125
604.9028	41536.2125
608.90594	41823.6125
612.90624	42519.7125
616.90371	39456.6125
620.89834	34248.5125
624.89015	32084.7125
628.87913	32014.4125
632.86528	32364.0125
636.84862	32217.3125
640.82913	31540.3125
644.80683	30726.9125
648.78172	30270.3125
652.75379	30207.4125
656.72306	30454.6125
660.68952	30718.2125
664.65319	30456.3125
668.61405	30038.9125
672.57211	29906.7125
676.52738	30085.5125
680.47986	30072.2125
684.42955	29858.9125
688.37646	29702.0125
692.32058	29901.0125
696.26192	30401.3125
700.20048	30837.0125
704.13626	31189.3125
708.06928	31396.2125
711.99952	31516.7125
715.927	31491.2125
719.85171	31473.9125
723.77365	31188.1125
727.69284	30578.6125
731.60928	30045.4125
735.52295	29824.8125
739.43388	29758.6125
743.34206	29818.5125
747.24749	30072.9125
751.15017	30540.7125
755.05012	31246.2125
758.94733	32311.1125
762.8418	33896.6125
766.73354	35913.9125
770.62254	37529.6125
774.50882	37290.2125
778.39237	35340.2125
782.27321	33043.5125
786.15132	31290.5125
790.02671	30279.2125
793.89938	29705.2125
797.76935	29405.3125
801.6366	29329.3125
805.50115	29230.2125
809.36299	29173.2125
813.22213	29021.0125
817.07857	28931.9125
820.93231	28844.3125
824.78336	28583.7125
828.63172	28299.2125
832.47738	28109.9125
836.32036	28027.7125
840.16066	28062.1125
843.99827	28091.5125
847.8332	28065.4125
851.66546	28073.1125
855.49504	28126.0125
859.32195	28113.4125
863.1462	27967.1125
866.96777	27898.7125
870.78668	27782.8125
874.60293	27756.5125
878.41652	27712.2125
882.22745	27790.4125
886.03573	27842.9125
889.84136	27851.0125
893.64433	27719.6125
897.44466	27614.8125
901.24235	27560.9125
905.0374	27516.5125
908.8298	27527.8125
912.61957	27683.5125
916.40671	28130.9125
920.19121	28790.9125
923.97308	29270.4125
927.75233	29035.7125
931.52895	28402.8125
935.30295	27741.1125
939.07433	27095.6125
942.84309	26671.2125
946.60924	26428.1125
950.37278	26297.2125
954.13371	26318.0125
957.89203	26371.9125
961.64774	26441.4125
965.40086	26443.8125
969.15137	26345.6125
972.89929	26148.3125
976.64461	25897.1125
980.38733	25760.9125
984.12747	25752.6125
987.86502	25873.5125
991.59999	25980.8125
995.33237	26162.2125
999.06217	26579.3125
1002.78939	27052.9125
1006.51404	27623.9125
1010.23611	28174.0125
1013.95561	28561.4125
1017.67255	28624.0125
1021.38692	28280.4125
1025.09872	27762.0125
1028.80796	27350.6125
1032.51465	27266.2125
1036.21877	27455.3125
1039.92035	27619.0125
1043.61937	27769.5125
1047.31584	27783.1125
1051.00976	27819.8125
1054.70114	28002.6125
1058.38998	28224.5125
1062.07627	28669.7125
1065.76003	29159.2125
1069.44126	29684.3125
1073.11995	30231.8125
1076.79611	30542.8125
1080.46974	30672.1125
1084.14085	30820.7125
1087.80943	31168.8125
1091.47549	31548.5125
1095.13903	31786.5125
1098.80005	31436.5125
1102.45857	30458.3125
1106.11456	29636.3125
1109.76805	29186.3125
1113.41903	29091.7125
1117.06751	29265.1125
1120.71348	29541.0125
1124.35696	29861.3125
1127.99793	30233.8125
1131.63641	30605.7125
1135.2724	30686.9125
1138.90589	30813.3125
1142.5369	31136.1125
1146.16542	31706.8125
1149.79145	32336.9125
1153.415	33017.8125
1157.03607	33887.9125
1160.65467	35379.5125
1164.27079	37611.3125
1167.88443	40073.2125
1171.49561	42299.6125
1175.10432	44609.8125
1178.71056	47510.6125
1182.31434	50248.7125
1185.91565	51433.5125
1189.51451	50882.2125
1193.11091	49874.8125
1196.70485	48406.1125
1200.29634	47022.8125
1203.88538	46381.8125
1207.47197	46708.8125
1211.05612	46988.9125
1214.63782	46310.8125
1218.21708	44378.6125
1221.79391	42105.7125
1225.36829	40357.6125
1228.94024	39244.3125
1232.50976	38498.4125
1236.07685	37921.8125
1239.6415	37671.2125
1243.20374	37672.0125
1246.76355	38056.1125
1250.32093	38700.7125
1253.8759	39640.9125
1257.42845	40690.3125
1260.97859	41958.6125
1264.52631	43255.6125
1268.07163	44618.8125
1271.61453	46035.1125
1275.15503	47640.3125
1278.69312	49586.2125
1282.22882	51904.7125
1285.76211	54720.9125
1289.29301	57989.7125
1292.82151	61841.1125
1296.34761	66242.5125
1299.87133	71130.2125
1303.39266	75381.9125
1306.9116	78204.8125
1310.42815	79617.7125
1313.94233	79731.1125
1317.45412	79125.3125
1320.96354	78356.2125
1324.47058	78169.3125
1327.97525	78386.8125
1331.47754	78373.1125
1334.97747	77987.7125
1338.47502	76784.4125
1341.97022	75073.7125
1345.46305	72976.1125
1348.95352	70907.6125
1352.44163	69609.5125
1355.92738	69769.1125
1359.41078	71408.8125
1362.89183	72619.7125
1366.37053	71664.7125
1369.84688	67036.8125
1373.32088	60418.2125
1376.79254	55717.4125
1380.26186	54742.9125
1383.72883	55962.7125
1387.19347	57074.3125
1390.65578	57112.2125
1394.11575	57041.9125
1397.57339	58070.1125
1401.0287	59500.3125
1404.48168	60479.7125
1407.93234	59994.5125
1411.38068	57843.9125
1414.82669	54566.8125
1418.27039	51136.1125
1421.71177	47918.0125
1425.15083	45429.6125
1428.58758	44360.1125
1432.02203	44778.1125
1435.45416	46544.4125
1438.88399	48665.8125
1442.31151	50409.6125
1445.73673	51487.5125
1449.15965	52341.2125
1452.58027	52835.7125
1455.9986	52940.9125
1459.41463	53099.8125
1462.82837	53688.1125
1466.23982	54496.3125
1469.64898	55278.8125
1473.05586	55749.6125
1476.46045	55620.6125
1479.86276	55037.4125
1483.26279	54150.7125
1486.66054	53714.8125
1490.05602	53626.0125
1493.44922	53913.9125
1496.84016	54210.4125
1500.22882	54576.7125
1503.61521	55001.4125
1506.99934	55668.7125
1510.38121	56316.6125
1513.76081	56620.6125
1517.13816	56589.2125
1520.51324	56558.2125
1523.88607	57125.6125
1527.25665	58120.8125
1530.62498	58933.3125
1533.99105	58874.7125
1537.35488	57791.5125
1540.71647	55826.9125
1544.07581	53419.3125
1547.4329	51012.7125
1550.78776	49063.1125
1554.14038	47689.2125
1557.49077	46895.4125
1560.83892	46364.9125
1564.18484	46060.3125
1567.52853	46220.5125
1570.86999	46822.0125
1574.20922	48351.3125
1577.54624	50031.8125
1580.88103	51443.2125
1584.2136	53080.7125
1587.54395	55653.1125
1590.87208	59095.2125
1594.19801	62630.5125
1597.52172	65135.8125
1600.84321	64793.6125
1604.16251	60496.2125
1607.47959	54312.2125
1610.79447	48424.7125
1614.10715	43439.0125
1617.41763	39742.7125
1620.7259	37463.6125
1624.03199	36324.6125
1627.33587	36574.8125
1630.63757	38193.8125
1633.93707	41705.7125
1637.23439	47354.4125
1640.52951	55466.2125
1643.82246	64957.0125
1647.11321	72420.1125
1650.40179	73383.3125
1653.68819	66930.1125
1656.97241	56337.9125
1660.25446	46202.8125
1663.53433	38548.3125
1666.81203	33598.4125
1670.08756	30498.4125
1673.36092	28582.9125
1676.63211	27334.7125
1679.90115	26481.2125
1683.16801	25902.6125
1686.43272	25439.9125
1689.69527	25101.7125
1692.95567	24841.5125
1696.2139	24600.4125
1699.46999	24459.4125
1702.72392	24316.3125
1705.97571	24135.5125
1709.22535	24049.4125
1712.47284	23980.5125
1715.71819	23878.3125
1718.96139	23735.8125
1722.20246	23654.3125
1725.44139	23478.7125
1728.67818	23379.9125
1731.91284	23160.6125
1735.14537	22984.6125
1738.37576	22854.7125
1741.60403	22727.3125
1744.83017	22631.9125
1748.05418	22542.0125
1751.27607	22499.3125
1754.49584	22490.5125
1757.71349	22429.2125
1760.92903	22422.3125
1764.14244	22382.5125
1767.35375	22335.9125
1770.56294	22305.4125
1773.77002	22210.5125
1776.97499	22148.9125
1780.17785	22054.7125
1783.37861	22016.6125
1786.57727	21944.8125
1789.77382	21910.8125
1792.96828	21855.2125
1796.16064	21795.7125
1799.3509	21752.2125
1802.53907	21679.8125
1805.72514	21569.3125
1808.90913	21520.3125
1812.09102	21445.8125
1815.27083	21384.9125
1818.44856	21353.5125
1821.6242	21315.2125
1824.79776	21301.0125
1827.96924	21262.4125
1831.13864	21216.4125
1834.30597	21276.5125
1837.47122	21231.8125
1840.6344	21181.2125
1843.7955	21204.4125
1846.95454	21150.0125
1850.11151	21173.7125
1853.26642	21129.4125
1856.41926	21127.0125
1859.57004	21129.6125
1862.71876	21088.9125
1865.86542	21049.2125
1869.01003	20975.6125
1872.15258	20947.6125
1875.29308	20897.7125
1878.43152	20887.0125
1881.56792	20854.1125
1884.70227	20810.9125
1887.83457	20785.1125
1890.96482	20758.6125
1894.09304	20684.3125
1897.21921	20688.3125
1900.34335	20683.8125
1903.46544	20668.0125
1906.58551	20638.4125
1909.70353	20561.7125
1912.81953	20523.0125
1915.93349	20473.1125
1919.04543	20417.6125
1922.15534	20383.7125
1925.26322	20310.7125
1928.36908	20232.3125
1931.47292	20198.9125
1934.57473	20118.8125
1937.67453	20085.3125
1940.77232	20013.7125
1943.86808	19972.1125
1946.96184	19944.0125
1950.05358	19867.3125
1953.14331	19834.0125
1956.23103	19722.0125
1959.31675	19674.1125
1962.40046	19614.9125
1965.48217	19538.2125
1968.56188	19456.3125
1971.63959	19403.5125
1974.7153	19289.2125
1977.78901	19252.1125
1980.86073	19130.3125
1983.93046	19108.0125
1986.99819	19044.1125
1990.06394	18990.2125
1993.1277	18961.3125
1996.18947	18930.1125
1999.24925	18862.5125
2002.30706	18772.7125
2005.36288	18688.6125
2008.41672	18663.4125
2011.46859	18601.7125
2014.51848	18544.5125
2017.56639	18503.8125
2020.61233	18408.7125
2023.6563	18381.4125
2026.6983	18322.5125
2029.73833	18260.9125
2032.7764	18234.2125
2035.8125	18164.4125
2038.84664	18127.2125
2041.87881	18130.0125
2044.90903	18066.3125
2047.93729	18036.1125
2050.96359	18026.2125
2053.98794	17986.7125
2057.01034	17982.2125
2060.03078	17958.2125
2063.04927	17893.8125
2066.06582	17928.2125
2069.08042	17922.3125
2072.09307	17856.3125
2075.10378	17821.6125
2078.11255	17825.3125
2081.11938	17819.6125
2084.12426	17813.5125
2087.12722	17799.5125
2090.12824	17790.8125
2093.12732	17780.6125
2096.12447	17726.2125
2099.11969	17749.0125
2102.11299	17791.1125
2105.10435	17789.6125
2108.09379	17748.6125
2111.08131	17742.8125
2114.0669	17743.1125
2117.05057	17788.3125
2120.03233	17762.8125
2123.01216	17788.7125
2125.99008	17782.1125
2128.96609	17773.7125
2131.94018	17777.7125
2134.91236	17748.2125
2137.88263	17754.9125
2140.851	17761.5125
2143.81746	17724.2125
2146.78201	17731.5125
2149.74466	17698.9125
2152.7054	17681.7125
2155.66425	17650.3125
2158.6212	17668.9125
2161.57625	17611.0125
2164.52941	17640.8125
2167.48067	17632.2125
2170.43004	17634.2125
2173.37752	17595.4125
2176.32311	17591.3125
2179.26681	17610.9125
2182.20863	17597.4125
2185.14856	17618.6125
2188.08661	17594.0125
2191.02278	17628.1125
2193.95707	17583.2125
2196.88948	17541.4125
2199.82001	17481.1125
2202.74867	17477.3125
2205.67545	17448.1125
2208.60037	17394.7125
2211.52341	17371.4125
2214.44458	17399.1125
2217.36388	17359.6125
2220.28132	17282.0125
2223.1969	17237.4125
2226.11061	17253.1125
2229.02246	17231.9125
2231.93245	17158.0125
2234.84058	17134.8125
2237.74686	17120.0125
2240.65128	17121.4125
2243.55385	17042.5125
2246.45456	17035.3125
2249.35343	16953.2125
2252.25044	16955.4125
2255.14561	16868.3125
2258.03893	16841.4125
2260.93041	16764.4125
2263.82004	16710.6125
2266.70783	16671.8125
2269.59378	16574.4125
2272.4779	16576.7125
2275.36017	16532.0125
2278.24061	16523.7125
2281.11922	16442.7125
2283.996	16446.4125
2286.87094	16405.5125
2289.74405	16364.4125
2292.61534	16325.1125
2295.4848	16356.8125
2298.35243	16323.8125
2301.21824	16319.3125
2304.08223	16323.8125
2306.94439	16319.5125
2309.80474	16296.3125
2312.66327	16275.3125
2315.51999	16244.2125
2318.37489	16227.0125
2321.22797	16176.8125
2324.07925	16175.6125
2326.92871	16114.8125
2329.77637	16091.2125
2332.62222	16085.7125
2335.46626	16072.1125
2338.3085	16082.1125
2341.14893	16044.1125
2343.98756	16045.5125
2346.8244	16047.3125
2349.65943	16024.7125
2352.49267	16046.8125
2355.32411	16043.2125
2358.15376	16037.0125
2360.98161	16028.2125
2363.80768	15995.2125
2366.63195	16009.7125
2369.45444	15990.0125
2372.27514	15936.1125
2375.09405	15927.5125
2377.91118	15875.8125
2380.72652	15863.7125
2383.54009	15801.6125
2386.35187	15804.6125
2389.16188	15728.4125
2391.97011	15740.6125
2394.77657	15679.0125
2397.58125	15672.7125
2400.38416	15633.5125
2403.18529	15645.6125
2405.98466	15619.9125
2408.78226	15556.3125
2411.57809	15577.6125
2414.37216	15560.3125
2417.16446	15553.5125
2419.955	15533.6125
2422.74378	15510.7125
2425.5308	15464.5125
2428.31606	15454.1125
2431.09956	15443.9125
2433.88131	15419.7125
2436.6613	15460.6125
2439.43954	15434.0125
2442.21603	15435.9125
2444.99077	15420.1125
2447.76377	15425.5125
2450.53501	15368.4125
2453.30451	15408.5125
2456.07226	15392.3125
2458.83827	15351.2125
2461.60254	15384.0125
2464.36507	15362.8125
2467.12586	15310.8125
2469.88492	15345.3125
2472.64224	15366.4125
2475.39782	15384.8125
2478.15167	15366.4125
2480.90379	15330.6125
2483.65417	15340.9125
2486.40283	15346.8125
2489.14976	15359.3125
2491.89497	15350.4125
2494.63845	15390.9125
2497.3802	15341.5125
2500.12024	15389.7125
2502.85855	15362.5125
2505.59514	15345.0125
2508.33002	15292.8125
2511.06318	15323.0125
2513.79462	15290.4125
2516.52435	15270.7125
2519.25237	15311.4125
2521.97867	15268.9125
2524.70327	15252.2125
2527.42616	15260.7125
2530.14734	15271.3125
2532.86681	15253.3125
2535.58458	15267.5125
2538.30065	15218.1125
2541.01501	15212.9125
2543.72768	15212.8125
2546.43864	15215.7125
2549.14791	15189.9125
2551.85548	15161.4125
2554.56136	15174.6125
2557.26554	15140.8125
2559.96803	15116.2125
2562.66883	15137.0125
2565.36794	15053.5125
2568.06536	15076.8125
2570.7611	15076.4125
2573.45514	15046.6125
2576.14751	15052.8125
2578.83819	15002.2125
2581.52719	15009.3125
2584.21451	15015.8125
2586.90015	15053.8125
2589.58411	15019.6125
2592.2664	15024.1125
2594.94701	14989.2125
2597.62594	14987.7125
2600.30321	14964.0125
2602.9788	14990.4125
2605.65273	14953.3125
2608.32498	15006.8125
2610.99557	14987.8125
2613.66449	15005.2125
2616.33175	14989.5125
2618.99734	14970.3125
2621.66128	14989.4125
2624.32355	14964.0125
2626.98416	14965.4125
2629.64311	14960.5125
2632.30041	14967.4125
2634.95605	14941.6125
2637.61004	14950.3125
2640.26238	14908.1125
2642.91306	14916.4125
2645.56209	14902.9125
2648.20948	14919.6125
2650.85521	14920.9125
2653.4993	14974.0125
2656.14175	14961.3125
2658.78255	14965.2125
2661.42171	14991.1125
2664.05923	14989.1125
2666.6951	14990.8125
2669.32934	14999.8125
2671.96194	15028.9125
2674.59291	15024.4125
2677.22224	15014.8125
2679.84993	15054.3125
2682.476	15005.1125
2685.10043	15011.4125
2687.72324	14987.5125
2690.34441	14969.2125
2692.96396	14958.4125
2695.58188	14999.0125
2698.19818	14946.9125
2700.81285	14996.9125
2703.4259	15032.3125
2706.03733	15072.8125
2708.64714	15015.4125
2711.25533	15020.6125
2713.86191	15002.2125
2716.46687	15027.1125
2719.07021	15049.3125
2721.67194	15079.0125
2724.27206	15080.0125
2726.87057	15127.7125
2729.46747	15129.7125
2732.06276	15156.4125
2734.65644	15139.4125
2737.24852	15118.6125
2739.83899	15126.3125
2742.42786	15116.4125
2745.01513	15079.3125
2747.60079	15110.5125
2750.18486	15077.5125
2752.76733	15058.3125
2755.3482	15038.9125
2757.92747	15079.0125
2760.50515	15059.1125
2763.08123	15043.0125
2765.65573	15093.3125
2768.22863	15071.1125
2770.79994	15056.5125
2773.36967	15090.3125
2775.9378	15054.0125
2778.50435	15048.3125
2781.06932	15041.9125
2783.6327	15035.4125
2786.1945	15058.1125
2788.75471	15061.1125
2791.31335	15015.2125
2793.87041	15017.0125
2796.42589	14953.2125
2798.97979	14997.1125
2801.53212	14934.2125
2804.08288	14945.7125
2806.63206	14884.7125
2809.17967	14871.9125
2811.72571	14859.4125
2814.27018	14813.4125
2816.81308	14792.2125
2819.35442	14753.3125
2821.89419	14720.3125
2824.43239	14721.2125
2826.96904	14722.7125
2829.50412	14702.1125
2832.03763	14640.9125
2834.56959	14636.8125
2837.1	14650.4125
2839.62884	14637.8125
2842.15613	14650.0125
2844.68186	14681.6125
2847.20604	14716.9125
2849.72867	14729.1125
2852.24974	14719.9125
2854.76927	14687.6125
2857.28724	14698.6125
2859.80367	14671.6125
2862.31855	14642.2125
2864.83189	14602.2125
2867.34368	14586.3125
2869.85393	14545.8125
2872.36264	14540.8125
2874.8698	14486.6125
2877.37543	14473.1125
2879.87952	14504.7125
2882.38207	14493.8125
2884.88308	14487.5125
2887.38256	14494.4125
2889.88051	14493.5125
2892.37692	14469.2125
2894.8718	14498.7125
2897.36515	14472.7125
2899.85698	14493.1125
2902.34727	14537.2125
2904.83604	14554.5125
2907.32328	14565.1125
2909.809	14550.3125
2912.29319	14569.6125
2914.77587	14556.3125
2917.25702	14549.1125
2919.73665	14538.4125
2922.21476	14548.8125
2924.69136	14547.0125
2927.16644	14547.2125
2929.64	14509.4125
2932.11205	14517.4125
2934.58258	14482.6125
2937.05161	14491.6125
2939.51912	14487.0125
2941.98513	14444.0125
2944.44962	14405.9125
2946.91261	14385.4125
2949.37409	14348.0125
2951.83407	14370.9125
2954.29254	14344.3125
2956.74951	14323.2125
2959.20498	14296.1125
2961.65895	14272.3125
2964.11142	14250.1125
2966.56239	14243.7125
2969.01186	14209.8125
2971.45984	14200.7125
2973.90632	14202.8125
2976.35131	14154.9125
2978.7948	14142.2125
2981.23681	14080.3125
2983.67732	14046.7125
2986.11635	13998.0125
2988.55388	13946.9125
2990.98993	13945.1125
2993.4245	13868.7125
2995.85758	13808.2125
2998.28917	13781.7125
3000.71928	13730.1125
3003.14791	13703.1125
3005.57506	13709.4125
3008.00073	13665.5125
3010.42493	13528.5125
3012.84764	13599.0125
3015.26888	13553.0125
3017.68865	13516.8125
3020.10694	13495.3125
3022.52376	13466.2125
3024.9391	13430.1125
3027.35298	13421.2125
3029.76539	13417.4125
3032.17632	13395.1125
3034.5858	13337.6125
3036.9938	13348.5125
3039.40034	13350.5125
3041.80542	13380.5125
3044.20903	13345.1125
3046.61118	13327.3125
3049.01187	13276.9125
3051.4111	13273.0125
3053.80888	13246.2125
3056.20519	13222.6125
3058.60005	13164.9125
3060.99345	13159.1125
3063.3854	13087.3125
3065.7759	12998.8125
3068.16494	12968.3125
3070.55254	12907.6125
3072.93868	12878.5125
3075.32338	12836.2125
3077.70662	12787.7125
3080.08842	12749.3125
3082.46878	12736.1125
3084.84769	12695.4125
3087.22515	12693.2125
3089.60118	12645.9125
3091.97576	12672.4125
3094.3489	12679.6125
3096.72061	12628.4125
3099.09087	12638.8125
3101.4597	12647.0125
3103.82709	12632.2125
3106.19305	12600.9125
3108.55757	12573.1125
3110.92066	12511.2125
3113.28232	12504.2125
3115.64255	12485.6125
3118.00134	12465.1125
3120.35871	12441.2125
3122.71466	12391.0125
3125.06917	12347.1125
3127.42226	12326.5125
3129.77393	12323.0125
3132.12417	12272.9125
3134.47299	12259.3125
3136.82039	12242.3125
3139.16636	12248.9125
3141.51092	12203.6125
3143.85406	12198.3125
3146.19579	12199.3125
3148.53609	12173.8125
3150.87499	12175.4125
3153.21246	12173.6125
3155.54853	12181.2125
3157.88318	12143.0125
3160.21642	12178.4125
3162.54826	12177.6125
3164.87868	12152.4125
3167.2077	12145.0125
3169.5353	12163.0125
3171.86151	12146.3125
3174.18631	12151.1125
3176.5097	12125.4125
3178.83169	12092.5125
3181.15228	12081.8125
3183.47147	12064.6125
3185.78926	12048.5125
3188.10565	12016.7125
3190.42065	11977.2125
3192.73424	11960.6125
3195.04645	11944.5125
3197.35725	11920.6125
3199.66667	11900.2125
3201.97469	11886.6125
3204.28132	11893.2125
3206.58656	11888.9125
3208.8904	11880.7125
3211.19287	11856.9125
3213.49394	11865.7125
3215.79363	11873.7125
3218.09193	11858.4125
3220.38884	11861.6125
3222.68438	11876.9125
3224.97853	11830.1125
3227.2713	11833.7125
3229.56269	11806.4125
3231.8527	11802.3125
3234.14133	11787.5125
3236.42858	11771.6125
3238.71446	11747.8125
3240.99896	11748.0125
3243.28209	11717.1125
3245.56384	11676.4125
3247.84423	11695.0125
3250.12324	11656.6125
3252.40088	11587.7125
3254.67715	11613.2125
3256.95205	11580.1125
3259.22558	11565.8125
3261.49775	11526.9125
3263.76855	11504.5125
3266.03799	11459.1125
3268.30606	11453.7125
3270.57277	11408.5125
3272.83812	11404.1125
3275.10211	11369.8125
3277.36474	11386.8125
3279.62601	11340.8125
3281.88593	11345.7125
3284.14448	11358.9125
3286.40168	11358.4125
3288.65753	11349.1125
3290.91202	11347.1125
3293.16516	11337.6125
3295.41695	11308.4125
3297.66738	11197.1125
3299.91647	11163.6125
3302.16421	11085.9125
3304.4106	11010.2125
3306.65564	10932.3125
3308.89933	10853.2125
3311.14169	10773.2125
3313.38269	10649.8125
3315.62236	10608.0125
3317.86068	10499.3125
3320.09766	10392.7125
3322.3333	10324.7125
3324.5676	10279.1125
3326.80056	10096.9125
3329.03219	10013.9125
3331.26248	3.7125
3333.49143	-0.7875
3335.71905	-1.5875
