Data from AgNPs_FTO_APTES_UA_5uM_CRN_100uM_R6G_10uM_NaF_0.1M_Addition_RamanShift__17__14-56-06-886.txt Node

Date: Mon Feb 07 14:56:06 GMT 2022
User: TCL
Spectrometer: QEP01345
Trigger mode: 4
Integration Time (sec): 7.000000E0
Scans to average: 10
Electric dark correction enabled: true
Nonlinearity correction enabled: false
Boxcar width: 0
XAxis mode: Raman Shifts
Number of Pixels in Spectrum: 1044
>>>>>Begin Spectral Data<<<<<
46.04893	0.0125
50.45542	-1.0875
54.85868	-1.0875
59.25871	-0.3875
63.6555	59.0125
68.04907	64.6125
72.43941	66.7125
76.82654	65.8125
81.21044	67.4125
85.59113	73.8125
89.96862	75.9125
94.34289	76.9125
98.71396	79.1125
103.08183	83.7125
107.4465	86.9125
111.80798	86.3125
116.16626	91.5125
120.52136	96.7125
124.87327	101.2125
129.222	109.6125
133.56755	115.6125
137.90993	127.4125
142.24913	139.0125
146.58517	158.1125
150.91804	186.7125
155.24774	226.9125
159.57429	282.3125
163.89768	367.2125
168.21792	496.2125
172.53501	680.8125
176.84895	951.0125
181.15975	1329.2125
185.46741	1882.6125
189.77193	2574.8125
194.07331	3459.6125
198.37157	4463.0125
202.6667	5508.1125
206.9587	6557.2125
211.24758	7554.0125
215.53334	8608.7125
219.81599	9678.6125
224.09553	10857.8125
228.37195	12161.7125
232.64527	13573.5125
236.91549	15036.0125
241.18261	16558.0125
245.44663	17974.6125
249.70755	19275.1125
253.96539	20405.4125
258.22014	21420.1125
262.4718	22196.5125
266.72039	22815.0125
270.96589	23159.1125
275.20832	23308.5125
279.44768	23297.5125
283.68397	23302.0125
287.91719	23239.6125
292.14735	23223.9125
296.37445	23327.6125
300.59849	23444.9125
304.81948	23404.5125
309.03742	23173.2125
313.25231	22743.9125
317.46415	22061.1125
321.67296	21324.0125
325.87872	20756.4125
330.08145	20429.3125
334.28114	20383.3125
338.47781	20442.1125
342.67145	20624.8125
346.86207	20891.2125
351.04966	21246.2125
355.23424	21551.8125
359.4158	21844.0125
363.59435	22071.4125
367.76989	22184.1125
371.94243	22277.6125
376.11196	22362.8125
380.27849	22489.3125
384.44203	22607.8125
388.60257	22795.9125
392.76012	23100.7125
396.91468	23362.0125
401.06626	23695.1125
405.21485	23951.6125
409.36047	23869.6125
413.50311	23602.4125
417.64277	23393.9125
421.77947	23355.5125
425.9132	23385.6125
430.04396	23570.9125
434.17176	23800.4125
438.2966	23972.9125
442.41849	24345.9125
446.53742	24925.4125
450.6534	25672.2125
454.76644	26221.7125
458.87653	26523.0125
462.98368	26514.2125
467.08789	26407.8125
471.18916	26306.8125
475.2875	26233.3125
479.38291	26369.9125
483.4754	26338.5125
487.56496	25922.5125
491.6516	25314.3125
495.73531	24665.1125
499.81612	24308.5125
503.89401	24270.8125
507.96899	24254.6125
512.04106	24189.2125
516.11023	23989.6125
520.1765	23628.9125
524.23987	23336.5125
528.30034	23006.6125
532.35792	22822.0125
536.41261	22639.5125
540.46441	22514.3125
544.51333	22596.6125
548.55936	23013.1125
552.60252	23615.7125
556.64279	24234.4125
560.6802	24697.4125
564.71473	25073.2125
568.7464	25655.7125
572.7752	26409.4125
576.80114	27058.6125
580.82422	27420.7125
584.84444	27733.3125
588.86181	27923.1125
592.87633	28107.4125
596.888	28066.0125
600.89682	27949.4125
604.9028	28320.5125
608.90594	29728.4125
612.90624	30928.4125
616.90371	28760.1125
620.89834	24836.0125
624.89015	23180.8125
628.87913	23164.1125
632.86528	23392.8125
636.84862	23415.4125
640.82913	23133.5125
644.80683	22540.8125
648.78172	22037.4125
652.75379	21840.0125
656.72306	21881.9125
660.68952	22119.4125
664.65319	22046.8125
668.61405	21730.6125
672.57211	21667.5125
676.52738	21746.0125
680.47986	21747.4125
684.42955	21679.6125
688.37646	21623.2125
692.32058	21639.1125
696.26192	21855.3125
700.20048	22014.5125
704.13626	22205.2125
708.06928	22293.4125
711.99952	22195.9125
715.927	22083.2125
719.85171	22092.2125
723.77365	22040.7125
727.69284	21794.4125
731.60928	21579.4125
735.52295	21474.2125
739.43388	21455.1125
743.34206	21488.3125
747.24749	21569.1125
751.15017	21797.6125
755.05012	22254.8125
758.94733	22918.0125
762.8418	24085.6125
766.73354	25793.8125
770.62254	27241.6125
774.50882	27308.9125
778.39237	25943.5125
782.27321	24081.5125
786.15132	22731.8125
790.02671	21853.3125
793.89938	21429.5125
797.76935	21241.1125
801.6366	21244.9125
805.50115	21212.7125
809.36299	21108.6125
813.22213	20920.3125
817.07857	20915.8125
820.93231	20870.5125
824.78336	20757.6125
828.63172	20618.1125
832.47738	20543.2125
836.32036	20514.7125
840.16066	20558.0125
843.99827	20611.6125
847.8332	20538.0125
851.66546	20474.4125
855.49504	20412.6125
859.32195	20452.4125
863.1462	20363.5125
866.96777	20320.7125
870.78668	20259.1125
874.60293	20231.1125
878.41652	20201.6125
882.22745	20215.7125
886.03573	20286.1125
889.84136	20293.1125
893.64433	20229.0125
897.44466	20154.8125
901.24235	20077.6125
905.0374	19974.2125
908.8298	19987.8125
912.61957	20074.0125
916.40671	20323.3125
920.19121	20668.6125
923.97308	20834.7125
927.75233	20789.4125
931.52895	20529.1125
935.30295	20245.0125
939.07433	19866.4125
942.84309	19559.6125
946.60924	19385.5125
950.37278	19319.2125
954.13371	19271.3125
957.89203	19255.4125
961.64774	19273.7125
965.40086	19231.7125
969.15137	19170.3125
972.89929	19009.1125
976.64461	18893.5125
980.38733	18846.3125
984.12747	18851.9125
987.86502	18997.5125
991.59999	19110.3125
995.33237	19437.2125
999.06217	19861.1125
1002.78939	20405.2125
1006.51404	20640.3125
1010.23611	20816.0125
1013.95561	20980.1125
1017.67255	21040.1125
1021.38692	20854.4125
1025.09872	20621.0125
1028.80796	20609.2125
1032.51465	20928.6125
1036.21877	21365.0125
1039.92035	21397.9125
1043.61937	21267.9125
1047.31584	20966.1125
1051.00976	20756.7125
1054.70114	20728.6125
1058.38998	20852.0125
1062.07627	21086.3125
1065.76003	21356.2125
1069.44126	21529.9125
1073.11995	21711.8125
1076.79611	21848.1125
1080.46974	21954.8125
1084.14085	22080.8125
1087.80943	22242.2125
1091.47549	22494.5125
1095.13903	22657.5125
1098.80005	22462.6125
1102.45857	22017.1125
1106.11456	21580.8125
1109.76805	21296.5125
1113.41903	21308.0125
1117.06751	21459.5125
1120.71348	21647.3125
1124.35696	21887.0125
1127.99793	22140.7125
1131.63641	22340.0125
1135.2724	22297.5125
1138.90589	22203.2125
1142.5369	22240.3125
1146.16542	22403.4125
1149.79145	22675.4125
1153.415	23062.7125
1157.03607	23597.8125
1160.65467	24405.3125
1164.27079	25503.3125
1167.88443	26999.3125
1171.49561	28633.0125
1175.10432	30685.2125
1178.71056	33177.9125
1182.31434	35463.4125
1185.91565	36822.3125
1189.51451	36992.5125
1193.11091	36418.6125
1196.70485	35282.5125
1200.29634	33852.0125
1203.88538	32687.2125
1207.47197	31971.5125
1211.05612	31455.2125
1214.63782	30843.4125
1218.21708	30073.0125
1221.79391	29252.3125
1225.36829	28652.6125
1228.94024	28110.1125
1232.50976	27499.7125
1236.07685	27039.1125
1239.6415	26840.7125
1243.20374	26824.5125
1246.76355	26998.0125
1250.32093	27398.5125
1253.8759	28030.7125
1257.42845	28745.1125
1260.97859	29563.4125
1264.52631	30300.6125
1268.07163	31074.8125
1271.61453	31944.3125
1275.15503	32978.7125
1278.69312	34116.0125
1282.22882	35299.5125
1285.76211	36495.3125
1289.29301	37846.3125
1292.82151	39726.9125
1296.34761	42140.1125
1299.87133	44811.9125
1303.39266	47480.7125
1306.9116	49979.8125
1310.42815	51941.9125
1313.94233	53118.2125
1317.45412	53260.7125
1320.96354	52941.4125
1324.47058	52727.3125
1327.97525	52577.6125
1331.47754	52414.1125
1334.97747	52307.3125
1338.47502	52138.2125
1341.97022	51828.6125
1345.46305	51009.8125
1348.95352	49722.9125
1352.44163	48352.0125
1355.92738	47490.2125
1359.41078	47663.1125
1362.89183	48103.0125
1366.37053	47054.6125
1369.84688	43924.3125
1373.32088	40302.3125
1376.79254	37787.6125
1380.26186	37092.5125
1383.72883	37395.9125
1387.19347	37983.1125
1390.65578	38281.4125
1394.11575	38575.8125
1397.57339	39247.7125
1401.0287	40074.7125
1404.48168	40709.0125
1407.93234	40480.0125
1411.38068	39356.2125
1414.82669	37482.4125
1418.27039	35356.3125
1421.71177	33263.3125
1425.15083	31675.3125
1428.58758	30758.2125
1432.02203	30786.6125
1435.45416	31536.8125
1438.88399	32632.9125
1442.31151	33688.4125
1445.73673	34635.9125
1449.15965	35486.9125
1452.58027	36215.7125
1455.9986	36795.9125
1459.41463	37236.7125
1462.82837	37747.8125
1466.23982	38210.2125
1469.64898	38476.4125
1473.05586	38462.4125
1476.46045	38191.2125
1479.86276	37567.6125
1483.26279	36878.4125
1486.66054	36335.0125
1490.05602	36088.2125
1493.44922	36028.5125
1496.84016	36210.7125
1500.22882	36697.8125
1503.61521	37493.7125
1506.99934	38607.0125
1510.38121	39584.7125
1513.76081	40048.2125
1517.13816	39746.0125
1520.51324	38950.2125
1523.88607	38306.5125
1527.25665	38059.2125
1530.62498	38033.0125
1533.99105	38130.4125
1537.35488	37911.4125
1540.71647	37383.1125
1544.07581	36423.5125
1547.4329	35396.2125
1550.78776	34498.5125
1554.14038	33840.8125
1557.49077	33493.5125
1560.83892	33395.9125
1564.18484	33396.5125
1567.52853	33449.0125
1570.86999	33732.5125
1574.20922	34364.1125
1577.54624	35091.4125
1580.88103	35637.2125
1584.2136	36255.6125
1587.54395	37366.8125
1590.87208	39016.7125
1594.19801	40889.4125
1597.52172	42603.9125
1600.84321	42844.7125
1604.16251	40821.1125
1607.47959	37700.5125
1610.79447	34387.3125
1614.10715	31319.5125
1617.41763	28818.3125
1620.7259	26973.2125
1624.03199	26006.3125
1627.33587	25820.1125
1630.63757	26523.0125
1633.93707	28332.7125
1637.23439	31256.6125
1640.52951	35299.3125
1643.82246	39782.3125
1647.11321	43251.3125
1650.40179	43936.2125
1653.68819	41132.5125
1656.97241	36027.5125
1660.25446	30726.8125
1663.53433	26464.0125
1666.81203	23587.3125
1670.08756	21679.2125
1673.36092	20503.6125
1676.63211	19660.9125
1679.90115	19159.9125
1683.16801	18738.1125
1686.43272	18478.7125
1689.69527	18223.9125
1692.95567	18036.8125
1696.2139	17903.1125
1699.46999	17810.1125
1702.72392	17696.9125
1705.97571	17583.7125
1709.22535	17519.1125
1712.47284	17504.6125
1715.71819	17439.3125
1718.96139	17385.5125
1722.20246	17282.9125
1725.44139	17230.9125
1728.67818	17108.5125
1731.91284	16946.5125
1735.14537	16897.0125
1738.37576	16795.4125
1741.60403	16742.2125
1744.83017	16705.6125
1748.05418	16638.2125
1751.27607	16626.2125
1754.49584	16582.5125
1757.71349	16588.7125
1760.92903	16570.4125
1764.14244	16519.0125
1767.35375	16493.1125
1770.56294	16415.1125
1773.77002	16381.1125
1776.97499	16293.9125
1780.17785	16303.9125
1783.37861	16258.6125
1786.57727	16248.6125
1789.77382	16192.6125
1792.96828	16163.0125
1796.16064	16097.4125
1799.3509	16050.7125
1802.53907	16035.8125
1805.72514	15966.9125
1808.90913	15904.1125
1812.09102	15878.0125
1815.27083	15803.2125
1818.44856	15798.0125
1821.6242	15784.9125
1824.79776	15754.6125
1827.96924	15717.6125
1831.13864	15714.6125
1834.30597	15726.3125
1837.47122	15704.6125
1840.6344	15706.7125
1843.7955	15699.7125
1846.95454	15689.8125
1850.11151	15655.8125
1853.26642	15658.3125
1856.41926	15671.4125
1859.57004	15674.4125
1862.71876	15629.2125
1865.86542	15621.0125
1869.01003	15614.3125
1872.15258	15582.5125
1875.29308	15563.8125
1878.43152	15536.1125
1881.56792	15518.8125
1884.70227	15480.8125
1887.83457	15484.3125
1890.96482	15473.5125
1894.09304	15425.9125
1897.21921	15431.4125
1900.34335	15429.9125
1903.46544	15396.5125
1906.58551	15391.5125
1909.70353	15345.3125
1912.81953	15309.0125
1915.93349	15297.7125
1919.04543	15279.9125
1922.15534	15233.4125
1925.26322	15190.8125
1928.36908	15149.0125
1931.47292	15132.0125
1934.57473	15084.3125
1937.67453	15037.5125
1940.77232	14984.1125
1943.86808	14947.1125
1946.96184	14886.1125
1950.05358	14877.6125
1953.14331	14860.6125
1956.23103	14786.3125
1959.31675	14712.4125
1962.40046	14701.3125
1965.48217	14636.9125
1968.56188	14596.7125
1971.63959	14568.7125
1974.7153	14462.0125
1977.78901	14454.8125
1980.86073	14395.7125
1983.93046	14314.3125
1986.99819	14286.8125
1990.06394	14273.3125
1993.1277	14207.6125
1996.18947	14156.6125
1999.24925	14114.1125
2002.30706	14079.5125
2005.36288	14029.7125
2008.41672	14022.9125
2011.46859	13991.2125
2014.51848	13931.3125
2017.56639	13878.5125
2020.61233	13840.3125
2023.6563	13846.9125
2026.6983	13756.2125
2029.73833	13760.1125
2032.7764	13750.8125
2035.8125	13693.5125
2038.84664	13691.2125
2041.87881	13680.0125
2044.90903	13618.8125
2047.93729	13582.5125
2050.96359	13587.8125
2053.98794	13562.0125
2057.01034	13572.2125
2060.03078	13568.3125
2063.04927	13545.7125
2066.06582	13535.5125
2069.08042	13530.0125
2072.09307	13504.9125
2075.10378	13493.7125
2078.11255	13472.7125
2081.11938	13468.3125
2084.12426	13467.2125
2087.12722	13465.0125
2090.12824	13427.8125
2093.12732	13409.3125
2096.12447	13426.1125
2099.11969	13428.7125
2102.11299	13419.8125
2105.10435	13412.6125
2108.09379	13423.3125
2111.08131	13416.6125
2114.0669	13450.6125
2117.05057	13455.1125
2120.03233	13466.5125
2123.01216	13472.7125
2125.99008	13471.0125
2128.96609	13457.5125
2131.94018	13487.9125
2134.91236	13490.7125
2137.88263	13490.7125
2140.851	13519.0125
2143.81746	13540.8125
2146.78201	13513.5125
2149.74466	13485.8125
2152.7054	13506.1125
2155.66425	13459.0125
2158.6212	13475.2125
2161.57625	13468.2125
2164.52941	13457.9125
2167.48067	13425.6125
2170.43004	13452.4125
2173.37752	13430.9125
2176.32311	13425.7125
2179.26681	13407.6125
2182.20863	13421.8125
2185.14856	13432.1125
2188.08661	13427.3125
2191.02278	13452.0125
2193.95707	13427.4125
2196.88948	13378.3125
2199.82001	13395.5125
2202.74867	13387.4125
2205.67545	13362.4125
2208.60037	13352.9125
2211.52341	13351.9125
2214.44458	13338.0125
2217.36388	13329.2125
2220.28132	13279.4125
2223.1969	13239.2125
2226.11061	13218.6125
2229.02246	13195.1125
2231.93245	13182.3125
2234.84058	13148.3125
2237.74686	13100.3125
2240.65128	13068.3125
2243.55385	13075.0125
2246.45456	13041.2125
2249.35343	13019.5125
2252.25044	13010.4125
2255.14561	12989.5125
2258.03893	12971.2125
2260.93041	12934.5125
2263.82004	12922.7125
2266.70783	12843.9125
2269.59378	12797.5125
2272.4779	12787.5125
2275.36017	12758.2125
2278.24061	12706.8125
2281.11922	12697.4125
2283.996	12690.0125
2286.87094	12687.8125
2289.74405	12672.7125
2292.61534	12664.8125
2295.4848	12640.1125
2298.35243	12617.5125
2301.21824	12631.3125
2304.08223	12620.9125
2306.94439	12652.6125
2309.80474	12619.5125
2312.66327	12638.9125
2315.51999	12649.7125
2318.37489	12634.7125
2321.22797	12599.1125
2324.07925	12592.1125
2326.92871	12562.1125
2329.77637	12577.6125
2332.62222	12560.2125
2335.46626	12514.0125
2338.3085	12509.7125
2341.14893	12526.5125
2343.98756	12538.2125
2346.8244	12552.8125
2349.65943	12532.6125
2352.49267	12540.0125
2355.32411	12542.0125
2358.15376	12498.6125
2360.98161	12487.9125
2363.80768	12483.5125
2366.63195	12492.6125
2369.45444	12479.2125
2372.27514	12441.5125
2375.09405	12428.7125
2377.91118	12411.8125
2380.72652	12357.4125
2383.54009	12337.1125
2386.35187	12309.9125
2389.16188	12286.1125
2391.97011	12242.7125
2394.77657	12224.7125
2397.58125	12206.8125
2400.38416	12203.6125
2403.18529	12144.6125
2405.98466	12157.9125
2408.78226	12113.7125
2411.57809	12132.8125
2414.37216	12112.2125
2417.16446	12100.7125
2419.955	12085.3125
2422.74378	12071.4125
2425.5308	12053.6125
2428.31606	12046.4125
2431.09956	12057.9125
2433.88131	12011.5125
2436.6613	12041.7125
2439.43954	12036.6125
2442.21603	12045.9125
2444.99077	12014.5125
2447.76377	12010.1125
2450.53501	11985.9125
2453.30451	12022.2125
2456.07226	11993.5125
2458.83827	11990.7125
2461.60254	12008.7125
2464.36507	11970.9125
2467.12586	11980.1125
2469.88492	11952.1125
2472.64224	11999.8125
2475.39782	11995.7125
2478.15167	11980.8125
2480.90379	11970.7125
2483.65417	12008.0125
2486.40283	12022.7125
2489.14976	12035.1125
2491.89497	12015.5125
2494.63845	12029.8125
2497.3802	12040.5125
2500.12024	12035.9125
2502.85855	12017.6125
2505.59514	12026.1125
2508.33002	11981.0125
2511.06318	11992.6125
2513.79462	11985.1125
2516.52435	11971.6125
2519.25237	11973.6125
2521.97867	11935.5125
2524.70327	11948.7125
2527.42616	11934.9125
2530.14734	11944.4125
2532.86681	11922.5125
2535.58458	11932.0125
2538.30065	11932.0125
2541.01501	11900.3125
2543.72768	11886.1125
2546.43864	11884.2125
2549.14791	11868.1125
2551.85548	11859.0125
2554.56136	11833.3125
2557.26554	11797.4125
2559.96803	11775.5125
2562.66883	11791.0125
2565.36794	11762.9125
2568.06536	11771.2125
2570.7611	11752.6125
2573.45514	11732.5125
2576.14751	11722.3125
2578.83819	11728.9125
2581.52719	11756.5125
2584.21451	11748.9125
2586.90015	11740.4125
2589.58411	11723.8125
2592.2664	11748.3125
2594.94701	11691.7125
2597.62594	11703.8125
2600.30321	11695.8125
2602.9788	11691.7125
2605.65273	11675.7125
2608.32498	11680.9125
2610.99557	11676.8125
2613.66449	11719.2125
2616.33175	11697.3125
2618.99734	11713.8125
2621.66128	11697.8125
2624.32355	11668.3125
2626.98416	11691.3125
2629.64311	11675.4125
2632.30041	11697.0125
2634.95605	11702.1125
2637.61004	11668.1125
2640.26238	11681.8125
2642.91306	11660.5125
2645.56209	11656.7125
2648.20948	11642.5125
2650.85521	11663.2125
2653.4993	11644.3125
2656.14175	11669.8125
2658.78255	11666.0125
2661.42171	11667.0125
2664.05923	11678.8125
2666.6951	11676.0125
2669.32934	11711.1125
2671.96194	11685.4125
2674.59291	11683.0125
2677.22224	11698.4125
2679.84993	11672.0125
2682.476	11665.8125
2685.10043	11640.6125
2687.72324	11643.5125
2690.34441	11640.7125
2692.96396	11591.0125
2695.58188	11623.6125
2698.19818	11631.7125
2700.81285	11631.7125
2703.4259	11675.0125
2706.03733	11714.2125
2708.64714	11711.5125
2711.25533	11696.4125
2713.86191	11661.6125
2716.46687	11702.0125
2719.07021	11692.5125
2721.67194	11723.5125
2724.27206	11686.0125
2726.87057	11735.5125
2729.46747	11737.4125
2732.06276	11737.1125
2734.65644	11736.5125
2737.24852	11720.1125
2739.83899	11695.7125
2742.42786	11723.0125
2745.01513	11691.1125
2747.60079	11693.6125
2750.18486	11700.0125
2752.76733	11691.9125
2755.3482	11682.2125
2757.92747	11678.6125
2760.50515	11668.7125
2763.08123	11705.0125
2765.65573	11695.3125
2768.22863	11665.4125
2770.79994	11667.2125
2773.36967	11673.9125
2775.9378	11665.5125
2778.50435	11688.6125
2781.06932	11691.2125
2783.6327	11696.1125
2786.1945	11711.0125
2788.75471	11705.7125
2791.31335	11690.5125
2793.87041	11669.0125
2796.42589	11613.9125
2798.97979	11625.7125
2801.53212	11612.3125
2804.08288	11576.4125
2806.63206	11516.0125
2809.17967	11509.3125
2811.72571	11518.4125
2814.27018	11476.7125
2816.81308	11468.6125
2819.35442	11425.4125
2821.89419	11420.9125
2824.43239	11408.3125
2826.96904	11425.1125
2829.50412	11417.9125
2832.03763	11376.2125
2834.56959	11390.8125
2837.1	11372.3125
2839.62884	11376.5125
2842.15613	11379.9125
2844.68186	11441.6125
2847.20604	11431.1125
2849.72867	11450.0125
2852.24974	11441.7125
2854.76927	11457.0125
2857.28724	11449.2125
2859.80367	11425.3125
2862.31855	11400.6125
2864.83189	11354.7125
2867.34368	11368.1125
2869.85393	11361.8125
2872.36264	11352.2125
2874.8698	11366.6125
2877.37543	11330.0125
2879.87952	11346.3125
2882.38207	11336.6125
2884.88308	11323.3125
2887.38256	11359.9125
2889.88051	11385.3125
2892.37692	11356.7125
2894.8718	11344.1125
2897.36515	11373.8125
2899.85698	11375.8125
2902.34727	11414.6125
2904.83604	11438.5125
2907.32328	11431.4125
2909.809	11451.9125
2912.29319	11438.0125
2914.77587	11455.2125
2917.25702	11454.7125
2919.73665	11442.0125
2922.21476	11437.3125
2924.69136	11458.4125
2927.16644	11468.6125
2929.64	11422.8125
2932.11205	11409.8125
2934.58258	11382.7125
2937.05161	11386.1125
2939.51912	11422.4125
2941.98513	11385.4125
2944.44962	11385.1125
2946.91261	11329.2125
2949.37409	11329.5125
2951.83407	11294.9125
2954.29254	11304.0125
2956.74951	11251.0125
2959.20498	11254.7125
2961.65895	11234.3125
2964.11142	11215.4125
2966.56239	11209.0125
2969.01186	11198.5125
2971.45984	11172.1125
2973.90632	11153.9125
2976.35131	11168.1125
2978.7948	11113.5125
2981.23681	11096.2125
2983.67732	11075.8125
2986.11635	11037.4125
2988.55388	11018.3125
2990.98993	10974.5125
2993.4245	10960.4125
2995.85758	10928.4125
2998.28917	10874.3125
3000.71928	10859.7125
3003.14791	10838.2125
3005.57506	10807.5125
3008.00073	10789.4125
3010.42493	10698.8125
3012.84764	10749.5125
3015.26888	10776.3125
3017.68865	10724.9125
3020.10694	10679.9125
3022.52376	10680.6125
3024.9391	10699.4125
3027.35298	10661.0125
3029.76539	10664.1125
3032.17632	10662.2125
3034.5858	10605.1125
3036.9938	10633.4125
3039.40034	10625.5125
3041.80542	10645.5125
3044.20903	10630.9125
3046.61118	10617.5125
3049.01187	10606.4125
3051.4111	10586.8125
3053.80888	10576.0125
3056.20519	10561.9125
3058.60005	10500.2125
3060.99345	10495.3125
3063.3854	10471.6125
3065.7759	10429.7125
3068.16494	10400.5125
3070.55254	10359.3125
3072.93868	10337.8125
3075.32338	10298.1125
3077.70662	10280.1125
3080.08842	10245.3125
3082.46878	10250.2125
3084.84769	10226.5125
3087.22515	10229.2125
3089.60118	10232.1125
3091.97576	10230.3125
3094.3489	10222.5125
3096.72061	10206.8125
3099.09087	10214.0125
3101.4597	10185.5125
3103.82709	10198.0125
3106.19305	10197.6125
3108.55757	10179.3125
3110.92066	10148.7125
3113.28232	10153.3125
3115.64255	10132.4125
3118.00134	10117.9125
3120.35871	10111.6125
3122.71466	10093.6125
3125.06917	10041.5125
3127.42226	9995.1125
3129.77393	10008.7125
3132.12417	9990.6125
3134.47299	9978.5125
3136.82039	9987.9125
3139.16636	9982.7125
3141.51092	9970.8125
3143.85406	9988.6125
3146.19579	9958.6125
3148.53609	9957.9125
3150.87499	9981.7125
3153.21246	9972.5125
3155.54853	9979.6125
3157.88318	9981.1125
3160.21642	9997.2125
3162.54826	10004.9125
3164.87868	10005.2125
3167.2077	9990.0125
3169.5353	9996.6125
3171.86151	10004.8125
3174.18631	10017.5125
3176.5097	9994.8125
3178.83169	9990.6125
3181.15228	10002.8125
3183.47147	9953.6125
3185.78926	9935.0125
3188.10565	9954.6125
3190.42065	9947.0125
3192.73424	9910.8125
3195.04645	9902.0125
3197.35725	9896.9125
3199.66667	9892.7125
3201.97469	9924.9125
3204.28132	9921.4125
3206.58656	9942.3125
3208.8904	9933.7125
3211.19287	9926.3125
3213.49394	9939.3125
3215.79363	9953.1125
3218.09193	9924.3125
3220.38884	9926.2125
3222.68438	9939.7125
3224.97853	9956.4125
3227.2713	9915.9125
3229.56269	9904.8125
3231.8527	9904.7125
3234.14133	9877.4125
3236.42858	9843.8125
3238.71446	9834.1125
3240.99896	9826.4125
3243.28209	9809.3125
3245.56384	9809.8125
3247.84423	9809.8125
3250.12324	9784.5125
3252.40088	9776.8125
3254.67715	9782.1125
3256.95205	9763.0125
3259.22558	9761.3125
3261.49775	9749.8125
3263.76855	9732.8125
3266.03799	9708.2125
3268.30606	9686.6125
3270.57277	9666.0125
3272.83812	9647.2125
3275.10211	9629.8125
3277.36474	9595.3125
3279.62601	9602.2125
3281.88593	9599.9125
3284.14448	9627.0125
3286.40168	9595.9125
3288.65753	9611.2125
3290.91202	9626.8125
3293.16516	9567.7125
3295.41695	9553.5125
3297.66738	9497.1125
3299.91647	9459.9125
3302.16421	9376.3125
3304.4106	9363.3125
3306.65564	9288.3125
3308.89933	9233.1125
3311.14169	9190.9125
3313.38269	9117.3125
3315.62236	9061.5125
3317.86068	8982.1125
3320.09766	8887.7125
3322.3333	8839.7125
3324.5676	8796.3125
3326.80056	8670.7125
3329.03219	8626.6125
3331.26248	3.9125
3333.49143	-0.1875
3335.71905	-0.8875
