Data from AgNPs_FTO_APTES_UA_5uM_CRN_1uM_R6G_10uM_NaF_0.1M_Addition_RamanShift__15__10-34-46-584.txt Node

Date: Mon Feb 07 10:34:46 GMT 2022
User: TCL
Spectrometer: QEP01345
Trigger mode: 4
Integration Time (sec): 7.000000E0
Scans to average: 10
Electric dark correction enabled: true
Nonlinearity correction enabled: false
Boxcar width: 0
XAxis mode: Raman Shifts
Number of Pixels in Spectrum: 1044
>>>>>Begin Spectral Data<<<<<
46.04893	-0.175
50.45542	-3.375
54.85868	-0.475
59.25871	0.725
63.6555	101.325
68.04907	107.225
72.43941	107.425
76.82654	113.325
81.21044	117.825
85.59113	125.925
89.96862	127.925
94.34289	126.625
98.71396	134.825
103.08183	139.125
107.4465	139.525
111.80798	146.025
116.16626	153.325
120.52136	158.825
124.87327	167.125
129.222	178.825
133.56755	196.925
137.90993	212.825
142.24913	233.425
146.58517	265.725
150.91804	312.325
155.24774	377.825
159.57429	479.425
163.89768	622.425
168.21792	834.325
172.53501	1144.625
176.84895	1606.525
181.15975	2261.625
185.46741	3187.425
189.77193	4395.425
194.07331	5901.325
198.37157	7630.925
202.6667	9411.625
206.9587	11208.625
211.24758	12977.825
215.53334	14755.525
219.81599	16647.925
224.09553	18657.625
228.37195	20970.925
232.64527	23426.025
236.91549	26039.925
241.18261	28697.125
245.44663	31186.825
249.70755	33455.425
253.96539	35385.025
258.22014	37016.725
262.4718	38362.725
266.72039	39283.425
270.96589	39817.525
275.20832	39912.025
279.44768	39680.025
283.68397	39323.125
287.91719	39043.425
292.14735	38798.125
296.37445	38697.225
300.59849	38751.125
304.81948	38884.025
309.03742	38870.125
313.25231	38526.525
317.46415	37843.125
321.67296	36860.125
325.87872	35956.025
330.08145	35511.725
334.28114	35421.225
338.47781	35673.325
342.67145	35969.325
346.86207	36507.625
351.04966	37163.125
355.23424	37852.225
359.4158	38582.525
363.59435	39110.225
367.76989	39496.625
371.94243	39677.825
376.11196	39787.325
380.27849	39868.925
384.44203	39906.625
388.60257	40214.725
392.76012	40620.225
396.91468	41188.725
401.06626	41911.825
405.21485	42402.225
409.36047	42193.225
413.50311	41687.125
417.64277	41328.025
421.77947	41435.625
425.9132	41591.925
430.04396	41754.225
434.17176	41889.225
438.2966	41936.325
442.41849	42200.225
446.53742	42833.925
450.6534	43734.025
454.76644	44417.325
458.87653	44735.625
462.98368	44746.425
467.08789	44503.025
471.18916	44118.925
475.2875	43607.825
479.38291	43583.325
483.4754	43651.925
487.56496	43503.725
491.6516	43153.025
495.73531	42622.525
499.81612	42216.425
503.89401	42360.225
507.96899	42442.525
512.04106	42419.125
516.11023	42093.925
520.1765	41526.225
524.23987	40901.225
528.30034	40330.225
532.35792	39906.025
536.41261	39450.825
540.46441	39070.225
544.51333	39040.725
548.55936	39586.225
552.60252	40454.225
556.64279	41480.825
560.6802	42176.025
564.71473	42689.925
568.7464	43613.625
572.7752	45021.225
576.80114	46683.725
580.82422	48300.725
584.84444	49931.425
588.86181	51499.525
592.87633	52430.625
596.888	51483.325
600.89682	49296.425
604.9028	48930.925
608.90594	51873.425
612.90624	55174.025
616.90371	52161.825
620.89834	44601.625
624.89015	41147.225
628.87913	40711.925
632.86528	41148.325
636.84862	41318.525
640.82913	40664.925
644.80683	39683.025
648.78172	38931.625
652.75379	38836.825
656.72306	39240.725
660.68952	39798.425
664.65319	39609.625
668.61405	39071.725
672.57211	38991.725
676.52738	39102.325
680.47986	39032.325
684.42955	38746.125
688.37646	38487.425
692.32058	38739.525
696.26192	39325.125
700.20048	39931.025
704.13626	40292.825
708.06928	40471.725
711.99952	40408.125
715.927	40321.925
719.85171	40381.325
723.77365	40191.425
727.69284	39497.625
731.60928	38906.825
735.52295	38568.625
739.43388	38586.225
743.34206	38664.225
747.24749	38823.325
751.15017	39283.825
755.05012	39969.725
758.94733	41072.425
762.8418	42886.625
766.73354	45691.125
770.62254	48201.825
774.50882	48582.725
778.39237	46612.425
782.27321	43844.025
786.15132	41539.225
790.02671	39941.825
793.89938	39153.625
797.76935	38734.325
801.6366	38610.825
805.50115	38552.625
809.36299	38361.925
813.22213	38120.925
817.07857	38026.225
820.93231	37909.625
824.78336	37683.725
828.63172	37526.625
832.47738	37356.625
836.32036	37306.225
840.16066	37289.225
843.99827	37378.725
847.8332	37357.925
851.66546	37371.825
855.49504	37448.325
859.32195	37495.425
863.1462	37414.825
866.96777	37340.725
870.78668	37305.925
874.60293	37313.425
878.41652	37316.725
882.22745	37394.625
886.03573	37515.725
889.84136	37516.425
893.64433	37456.525
897.44466	37408.425
901.24235	37385.525
905.0374	37242.525
908.8298	37184.625
912.61957	37206.125
916.40671	37562.425
920.19121	38020.025
923.97308	38541.225
927.75233	38632.425
931.52895	38275.025
935.30295	37652.525
939.07433	36896.825
942.84309	36327.725
946.60924	36030.725
950.37278	35892.325
954.13371	35891.225
957.89203	35883.925
961.64774	35871.525
965.40086	35845.725
969.15137	35848.925
972.89929	35681.325
976.64461	35642.825
980.38733	35554.925
984.12747	35516.225
987.86502	35667.225
991.59999	35834.025
995.33237	36120.625
999.06217	36476.325
1002.78939	37076.725
1006.51404	37643.425
1010.23611	38256.625
1013.95561	38733.425
1017.67255	38780.625
1021.38692	38419.225
1025.09872	37886.525
1028.80796	37574.825
1032.51465	37547.825
1036.21877	37845.625
1039.92035	38043.725
1043.61937	38084.925
1047.31584	38009.425
1051.00976	37974.025
1054.70114	38026.525
1058.38998	38255.925
1062.07627	38628.925
1065.76003	39177.125
1069.44126	39737.125
1073.11995	40461.125
1076.79611	41180.225
1080.46974	41516.125
1084.14085	41743.025
1087.80943	42137.825
1091.47549	42627.425
1095.13903	42940.725
1098.80005	42557.125
1102.45857	41537.825
1106.11456	40428.225
1109.76805	39721.825
1113.41903	39481.525
1117.06751	39479.125
1120.71348	39779.625
1124.35696	40098.525
1127.99793	40588.525
1131.63641	40945.325
1135.2724	40895.225
1138.90589	40760.825
1142.5369	40842.025
1146.16542	41044.525
1149.79145	41336.825
1153.415	41732.225
1157.03607	42355.325
1160.65467	43542.625
1164.27079	45528.625
1167.88443	47909.825
1171.49561	50341.125
1175.10432	53090.525
1178.71056	56776.525
1182.31434	60230.425
1185.91565	62080.525
1189.51451	62201.525
1193.11091	61005.625
1196.70485	58989.725
1200.29634	56744.125
1203.88538	55355.425
1207.47197	54702.225
1211.05612	54339.125
1214.63782	53533.525
1218.21708	51965.825
1221.79391	50214.925
1225.36829	48789.725
1228.94024	47906.125
1232.50976	47254.425
1236.07685	46813.125
1239.6415	46548.825
1243.20374	46571.025
1246.76355	46860.025
1250.32093	47458.825
1253.8759	48445.525
1257.42845	49700.525
1260.97859	51159.025
1264.52631	52693.025
1268.07163	54205.025
1271.61453	55732.125
1275.15503	57354.825
1278.69312	59096.225
1282.22882	60803.025
1285.76211	62890.125
1289.29301	65322.225
1292.82151	68215.025
1296.34761	71667.125
1299.87133	75720.925
1303.39266	79880.425
1306.9116	83582.325
1310.42815	85932.125
1313.94233	86756.925
1317.45412	86053.125
1320.96354	84984.825
1324.47058	84573.125
1327.97525	84684.725
1331.47754	84855.125
1334.97747	84559.925
1338.47502	83754.225
1341.97022	82651.525
1345.46305	81411.825
1348.95352	80232.025
1352.44163	79266.225
1355.92738	79495.525
1359.41078	81235.525
1362.89183	83265.225
1366.37053	82471.525
1369.84688	77361.125
1373.32088	70099.325
1376.79254	64586.825
1380.26186	62389.725
1383.72883	62266.225
1387.19347	62159.325
1390.65578	61544.325
1394.11575	61091.225
1397.57339	61451.125
1401.0287	62607.725
1404.48168	63459.225
1407.93234	63463.425
1411.38068	61944.125
1414.82669	59459.025
1418.27039	56703.725
1421.71177	54179.825
1425.15083	52248.525
1428.58758	51444.525
1432.02203	51962.725
1435.45416	53370.925
1438.88399	54993.825
1442.31151	56283.925
1445.73673	57134.625
1449.15965	57745.025
1452.58027	58076.625
1455.9986	58148.725
1459.41463	58439.025
1462.82837	59171.825
1466.23982	60140.325
1469.64898	61022.525
1473.05586	61507.425
1476.46045	61401.325
1479.86276	61027.225
1483.26279	60666.025
1486.66054	60451.125
1490.05602	60821.825
1493.44922	61664.825
1496.84016	62776.825
1500.22882	64306.925
1503.61521	66289.425
1506.99934	68437.425
1510.38121	70248.125
1513.76081	70805.625
1517.13816	69862.625
1520.51324	68167.525
1523.88607	66846.625
1527.25665	66168.225
1530.62498	65836.025
1533.99105	65257.825
1537.35488	64070.725
1540.71647	62406.925
1544.07581	60418.425
1547.4329	58413.825
1550.78776	56752.325
1554.14038	55637.325
1557.49077	55131.125
1560.83892	54925.825
1564.18484	55000.525
1567.52853	55186.225
1570.86999	55629.525
1574.20922	56679.925
1577.54624	57735.725
1580.88103	58116.125
1584.2136	58679.825
1587.54395	60542.525
1590.87208	63539.725
1594.19801	67064.025
1597.52172	69964.225
1600.84321	70199.225
1604.16251	66390.825
1607.47959	60993.225
1610.79447	55796.125
1614.10715	51114.425
1617.41763	47304.525
1620.7259	44758.525
1624.03199	43527.225
1627.33587	43473.025
1630.63757	44723.725
1633.93707	47502.725
1637.23439	52335.225
1640.52951	59373.025
1643.82246	68059.225
1647.11321	75381.425
1650.40179	77264.025
1653.68819	71968.025
1656.97241	62600.925
1660.25446	53115.425
1663.53433	45994.425
1666.81203	41323.125
1670.08756	38420.125
1673.36092	36651.325
1676.63211	35506.625
1679.90115	34719.625
1683.16801	34088.225
1686.43272	33653.825
1689.69527	33335.125
1692.95567	33048.625
1696.2139	32871.125
1699.46999	32740.125
1702.72392	32625.925
1705.97571	32516.625
1709.22535	32391.225
1712.47284	32286.925
1715.71819	32257.925
1718.96139	32128.125
1722.20246	32059.025
1725.44139	31895.625
1728.67818	31729.425
1731.91284	31564.125
1735.14537	31366.525
1738.37576	31179.825
1741.60403	31065.125
1744.83017	30945.725
1748.05418	30844.925
1751.27607	30787.325
1754.49584	30663.525
1757.71349	30640.025
1760.92903	30617.625
1764.14244	30572.125
1767.35375	30571.425
1770.56294	30482.725
1773.77002	30380.125
1776.97499	30355.925
1780.17785	30315.525
1783.37861	30279.525
1786.57727	30199.025
1789.77382	30169.425
1792.96828	30075.125
1796.16064	30009.925
1799.3509	29925.325
1802.53907	29903.025
1805.72514	29784.125
1808.90913	29697.325
1812.09102	29627.725
1815.27083	29584.125
1818.44856	29547.825
1821.6242	29475.025
1824.79776	29467.325
1827.96924	29423.225
1831.13864	29379.925
1834.30597	29410.425
1837.47122	29378.925
1840.6344	29352.925
1843.7955	29371.825
1846.95454	29389.425
1850.11151	29434.025
1853.26642	29368.225
1856.41926	29363.725
1859.57004	29360.925
1862.71876	29352.325
1865.86542	29212.825
1869.01003	29175.125
1872.15258	29138.025
1875.29308	29099.425
1878.43152	29067.825
1881.56792	28963.825
1884.70227	28947.625
1887.83457	28915.425
1890.96482	28831.925
1894.09304	28818.025
1897.21921	28741.125
1900.34335	28655.325
1903.46544	28621.425
1906.58551	28591.425
1909.70353	28488.125
1912.81953	28461.325
1915.93349	28404.125
1919.04543	28369.125
1922.15534	28297.225
1925.26322	28245.325
1928.36908	28150.825
1931.47292	28005.125
1934.57473	27960.925
1937.67453	27889.925
1940.77232	27765.725
1943.86808	27699.225
1946.96184	27630.925
1950.05358	27529.825
1953.14331	27468.725
1956.23103	27390.325
1959.31675	27256.425
1962.40046	27211.525
1965.48217	27134.725
1968.56188	27090.225
1971.63959	26989.225
1974.7153	26876.325
1977.78901	26771.525
1980.86073	26648.625
1983.93046	26582.025
1986.99819	26489.725
1990.06394	26431.925
1993.1277	26362.025
1996.18947	26296.025
1999.24925	26178.525
2002.30706	26050.325
2005.36288	26024.125
2008.41672	25914.425
2011.46859	25852.725
2014.51848	25761.425
2017.56639	25651.325
2020.61233	25625.425
2023.6563	25520.625
2026.6983	25474.825
2029.73833	25443.725
2032.7764	25345.125
2035.8125	25317.625
2038.84664	25241.425
2041.87881	25173.725
2044.90903	25107.625
2047.93729	25060.125
2050.96359	25015.425
2053.98794	25008.225
2057.01034	25002.525
2060.03078	24999.925
2063.04927	24975.525
2066.06582	24940.825
2069.08042	24932.425
2072.09307	24885.725
2075.10378	24847.025
2078.11255	24835.225
2081.11938	24876.525
2084.12426	24787.025
2087.12722	24788.825
2090.12824	24797.225
2093.12732	24778.925
2096.12447	24786.225
2099.11969	24781.425
2102.11299	24802.425
2105.10435	24795.525
2108.09379	24765.525
2111.08131	24731.925
2114.0669	24718.625
2117.05057	24761.725
2120.03233	24802.925
2123.01216	24800.725
2125.99008	24835.325
2128.96609	24849.725
2131.94018	24890.025
2134.91236	24844.325
2137.88263	24869.025
2140.851	24871.725
2143.81746	24920.725
2146.78201	24831.125
2149.74466	24834.725
2152.7054	24836.225
2155.66425	24838.925
2158.6212	24784.125
2161.57625	24761.825
2164.52941	24776.325
2167.48067	24719.425
2170.43004	24745.125
2173.37752	24687.225
2176.32311	24690.825
2179.26681	24671.125
2182.20863	24678.325
2185.14856	24697.025
2188.08661	24675.725
2191.02278	24686.125
2193.95707	24680.025
2196.88948	24609.625
2199.82001	24549.325
2202.74867	24489.425
2205.67545	24483.325
2208.60037	24415.625
2211.52341	24407.425
2214.44458	24421.425
2217.36388	24334.525
2220.28132	24252.225
2223.1969	24215.125
2226.11061	24171.425
2229.02246	24152.825
2231.93245	24121.525
2234.84058	24059.125
2237.74686	24049.525
2240.65128	24042.925
2243.55385	24005.125
2246.45456	23934.125
2249.35343	23899.325
2252.25044	23786.725
2255.14561	23751.825
2258.03893	23692.725
2260.93041	23613.825
2263.82004	23604.025
2266.70783	23509.125
2269.59378	23461.525
2272.4779	23342.125
2275.36017	23321.625
2278.24061	23302.425
2281.11922	23248.925
2283.996	23201.925
2286.87094	23193.425
2289.74405	23142.025
2292.61534	23106.325
2295.4848	23069.425
2298.35243	23034.425
2301.21824	22994.925
2304.08223	23030.025
2306.94439	23015.925
2309.80474	23017.425
2312.66327	23021.425
2315.51999	22955.725
2318.37489	22886.125
2321.22797	22869.025
2324.07925	22868.825
2326.92871	22805.825
2329.77637	22794.425
2332.62222	22695.725
2335.46626	22716.725
2338.3085	22685.025
2341.14893	22674.025
2343.98756	22683.825
2346.8244	22653.825
2349.65943	22646.325
2352.49267	22639.325
2355.32411	22650.925
2358.15376	22653.725
2360.98161	22597.825
2363.80768	22579.025
2366.63195	22605.625
2369.45444	22606.425
2372.27514	22537.225
2375.09405	22465.225
2377.91118	22452.225
2380.72652	22382.625
2383.54009	22334.525
2386.35187	22281.125
2389.16188	22206.525
2391.97011	22141.725
2394.77657	22139.425
2397.58125	22124.025
2400.38416	22062.925
2403.18529	22043.525
2405.98466	22021.925
2408.78226	21942.525
2411.57809	21952.625
2414.37216	21924.625
2417.16446	21900.725
2419.955	21854.825
2422.74378	21870.325
2425.5308	21804.725
2428.31606	21844.625
2431.09956	21830.925
2433.88131	21751.325
2436.6613	21819.525
2439.43954	21778.025
2442.21603	21754.125
2444.99077	21715.425
2447.76377	21739.525
2450.53501	21661.225
2453.30451	21675.525
2456.07226	21634.225
2458.83827	21591.525
2461.60254	21618.825
2464.36507	21569.225
2467.12586	21569.225
2469.88492	21559.725
2472.64224	21583.025
2475.39782	21569.625
2478.15167	21627.225
2480.90379	21550.125
2483.65417	21571.725
2486.40283	21524.925
2489.14976	21572.125
2491.89497	21540.625
2494.63845	21542.725
2497.3802	21520.125
2500.12024	21506.325
2502.85855	21473.825
2505.59514	21424.225
2508.33002	21409.025
2511.06318	21385.625
2513.79462	21360.925
2516.52435	21343.125
2519.25237	21351.625
2521.97867	21299.425
2524.70327	21306.325
2527.42616	21279.425
2530.14734	21237.225
2532.86681	21275.025
2535.58458	21238.525
2538.30065	21208.125
2541.01501	21167.425
2543.72768	21172.125
2546.43864	21132.125
2549.14791	21079.125
2551.85548	21074.225
2554.56136	21053.325
2557.26554	21022.025
2559.96803	20939.125
2562.66883	20924.225
2565.36794	20936.525
2568.06536	20900.225
2570.7611	20860.025
2573.45514	20859.725
2576.14751	20820.125
2578.83819	20737.525
2581.52719	20753.225
2584.21451	20727.525
2586.90015	20720.725
2589.58411	20664.925
2592.2664	20647.425
2594.94701	20597.825
2597.62594	20629.125
2600.30321	20561.325
2602.9788	20534.325
2605.65273	20551.625
2608.32498	20571.225
2610.99557	20586.625
2613.66449	20590.125
2616.33175	20518.025
2618.99734	20522.525
2621.66128	20466.525
2624.32355	20417.425
2626.98416	20398.525
2629.64311	20359.825
2632.30041	20381.625
2634.95605	20377.625
2637.61004	20354.525
2640.26238	20329.025
2642.91306	20312.725
2645.56209	20275.725
2648.20948	20268.525
2650.85521	20279.825
2653.4993	20301.925
2656.14175	20284.625
2658.78255	20315.225
2661.42171	20298.825
2664.05923	20335.825
2666.6951	20309.125
2669.32934	20332.525
2671.96194	20328.625
2674.59291	20350.425
2677.22224	20343.425
2679.84993	20366.025
2682.476	20340.825
2685.10043	20288.825
2687.72324	20262.825
2690.34441	20251.925
2692.96396	20242.325
2695.58188	20271.725
2698.19818	20210.025
2700.81285	20225.725
2703.4259	20243.025
2706.03733	20287.425
2708.64714	20255.025
2711.25533	20225.525
2713.86191	20246.425
2716.46687	20290.025
2719.07021	20250.525
2721.67194	20292.425
2724.27206	20233.725
2726.87057	20302.225
2729.46747	20324.825
2732.06276	20319.925
2734.65644	20306.425
2737.24852	20295.825
2739.83899	20280.925
2742.42786	20276.725
2745.01513	20199.225
2747.60079	20205.225
2750.18486	20125.925
2752.76733	20144.425
2755.3482	20106.125
2757.92747	20147.925
2760.50515	20078.125
2763.08123	20081.725
2765.65573	20075.325
2768.22863	20039.925
2770.79994	20041.725
2773.36967	20063.925
2775.9378	20050.625
2778.50435	20054.325
2781.06932	19987.125
2783.6327	20036.325
2786.1945	20009.225
2788.75471	19999.725
2791.31335	19954.325
2793.87041	19926.725
2796.42589	19883.525
2798.97979	19830.225
2801.53212	19809.725
2804.08288	19734.525
2806.63206	19679.525
2809.17967	19651.125
2811.72571	19627.825
2814.27018	19608.625
2816.81308	19525.525
2819.35442	19497.125
2821.89419	19480.225
2824.43239	19470.925
2826.96904	19466.325
2829.50412	19459.025
2832.03763	19436.425
2834.56959	19371.625
2837.1	19379.225
2839.62884	19357.325
2842.15613	19321.025
2844.68186	19392.825
2847.20604	19394.525
2849.72867	19365.825
2852.24974	19339.425
2854.76927	19319.025
2857.28724	19314.125
2859.80367	19309.125
2862.31855	19289.725
2864.83189	19242.325
2867.34368	19178.125
2869.85393	19189.825
2872.36264	19141.325
2874.8698	19115.925
2877.37543	19107.525
2879.87952	19127.525
2882.38207	19080.625
2884.88308	19073.925
2887.38256	19080.325
2889.88051	19064.725
2892.37692	19075.425
2894.8718	19080.125
2897.36515	19109.025
2899.85698	19090.625
2902.34727	19153.625
2904.83604	19141.925
2907.32328	19146.625
2909.809	19142.125
2912.29319	19153.325
2914.77587	19122.425
2917.25702	19081.425
2919.73665	19106.225
2922.21476	19086.725
2924.69136	19080.625
2927.16644	19081.425
2929.64	19034.525
2932.11205	18994.925
2934.58258	18959.725
2937.05161	18959.625
2939.51912	18976.625
2941.98513	18920.725
2944.44962	18917.725
2946.91261	18835.525
2949.37409	18839.925
2951.83407	18818.725
2954.29254	18774.025
2956.74951	18741.425
2959.20498	18745.525
2961.65895	18699.225
2964.11142	18712.825
2966.56239	18661.225
2969.01186	18660.225
2971.45984	18621.725
2973.90632	18627.525
2976.35131	18604.125
2978.7948	18530.825
2981.23681	18504.925
2983.67732	18462.525
2986.11635	18438.325
2988.55388	18396.425
2990.98993	18326.025
2993.4245	18247.625
2995.85758	18223.125
2998.28917	18144.425
3000.71928	18087.825
3003.14791	18042.825
3005.57506	18033.525
3008.00073	17956.425
3010.42493	17998.025
3012.84764	17911.325
3015.26888	17904.325
3017.68865	17864.925
3020.10694	17845.425
3022.52376	17727.625
3024.9391	17752.925
3027.35298	17755.825
3029.76539	17765.025
3032.17632	17710.025
3034.5858	17646.025
3036.9938	17637.525
3039.40034	17635.525
3041.80542	17641.525
3044.20903	17576.525
3046.61118	17563.725
3049.01187	17543.425
3051.4111	17536.025
3053.80888	17463.225
3056.20519	17449.125
3058.60005	17393.625
3060.99345	17325.725
3063.3854	17272.025
3065.7759	17211.225
3068.16494	17159.525
3070.55254	17087.725
3072.93868	17055.325
3075.32338	17013.725
3077.70662	16952.225
3080.08842	16909.625
3082.46878	16904.125
3084.84769	16855.025
3087.22515	16849.225
3089.60118	16864.425
3091.97576	16844.525
3094.3489	16842.925
3096.72061	16818.025
3099.09087	16836.625
3101.4597	16800.125
3103.82709	16801.825
3106.19305	16779.825
3108.55757	16769.925
3110.92066	16678.925
3113.28232	16686.625
3115.64255	16609.125
3118.00134	16553.425
3120.35871	16545.125
3122.71466	16503.425
3125.06917	16458.825
3127.42226	16395.525
3129.77393	16374.025
3132.12417	16313.325
3134.47299	16339.325
3136.82039	16317.625
3139.16636	16288.825
3141.51092	16314.825
3143.85406	16291.325
3146.19579	16290.025
3148.53609	16311.225
3150.87499	16273.825
3153.21246	16261.725
3155.54853	16277.225
3157.88318	16235.925
3160.21642	16271.125
3162.54826	16255.225
3164.87868	16267.825
3167.2077	16218.025
3169.5353	16217.925
3171.86151	16182.325
3174.18631	16175.825
3176.5097	16164.825
3178.83169	16130.625
3181.15228	16145.825
3183.47147	16086.825
3185.78926	16060.125
3188.10565	16030.925
3190.42065	15989.225
3192.73424	15967.625
3195.04645	15967.225
3197.35725	15954.625
3199.66667	15919.825
3201.97469	15931.325
3204.28132	15891.625
3206.58656	15881.525
3208.8904	15877.325
3211.19287	15866.525
3213.49394	15908.125
3215.79363	15896.025
3218.09193	15898.925
3220.38884	15858.325
3222.68438	15854.425
3224.97853	15823.825
3227.2713	15843.025
3229.56269	15787.725
3231.8527	15805.425
3234.14133	15761.925
3236.42858	15715.325
3238.71446	15730.425
3240.99896	15704.825
3243.28209	15665.825
3245.56384	15649.525
3247.84423	15649.825
3250.12324	15600.025
3252.40088	15568.725
3254.67715	15533.125
3256.95205	15543.325
3259.22558	15518.925
3261.49775	15488.325
3263.76855	15447.825
3266.03799	15427.425
3268.30606	15365.525
3270.57277	15358.925
3272.83812	15334.025
3275.10211	15289.925
3277.36474	15275.025
3279.62601	15259.925
3281.88593	15207.825
3284.14448	15197.025
3286.40168	15211.925
3288.65753	15236.025
3290.91202	15168.525
3293.16516	15160.125
3295.41695	15128.925
3297.66738	15055.925
3299.91647	14980.725
3302.16421	14843.325
3304.4106	14784.625
3306.65564	14672.425
3308.89933	14560.025
3311.14169	14461.525
3313.38269	14310.625
3315.62236	14242.925
3317.86068	14103.925
3320.09766	13982.825
3322.3333	13869.025
3324.5676	13834.525
3326.80056	13594.125
3329.03219	13500.325
3331.26248	3.025
3333.49143	-0.775
3335.71905	-0.275
