Data from AgNPs_FTO_APTES_UA_5uM_CRN_200uM_R6G_10uM_NaF_0.1M_Addition_RamanShift__31__16-36-01-803.txt Node

Date: Mon Feb 07 16:36:01 GMT 2022
User: TCL
Spectrometer: QEP01345
Trigger mode: 4
Integration Time (sec): 7.000000E0
Scans to average: 10
Electric dark correction enabled: true
Nonlinearity correction enabled: false
Boxcar width: 0
XAxis mode: Raman Shifts
Number of Pixels in Spectrum: 1044
>>>>>Begin Spectral Data<<<<<
46.04893	-1.4625
50.45542	-0.0625
54.85868	0.0375
59.25871	0.8375
63.6555	45.4375
68.04907	52.6375
72.43941	52.7375
76.82654	52.9375
81.21044	51.2375
85.59113	54.2375
89.96862	58.7375
94.34289	63.6375
98.71396	63.7375
103.08183	66.4375
107.4465	68.9375
111.80798	69.0375
116.16626	69.5375
120.52136	72.1375
124.87327	75.5375
129.222	81.2375
133.56755	83.1375
137.90993	92.2375
142.24913	97.2375
146.58517	111.3375
150.91804	125.1375
155.24774	154.6375
159.57429	194.8375
163.89768	247.5375
168.21792	328.7375
172.53501	441.4375
176.84895	610.7375
181.15975	864.5375
185.46741	1201.7375
189.77193	1666.5375
194.07331	2225.4375
198.37157	2871.3375
202.6667	3550.7375
206.9587	4227.2375
211.24758	4911.1375
215.53334	5616.0375
219.81599	6437.1375
224.09553	7348.8375
228.37195	8381.5375
232.64527	9493.8375
236.91549	10601.8375
241.18261	11571.4375
245.44663	12338.6375
249.70755	12961.1375
253.96539	13498.1375
258.22014	13911.0375
262.4718	14279.4375
266.72039	14588.6375
270.96589	14789.3375
275.20832	14814.6375
279.44768	14725.2375
283.68397	14574.4375
287.91719	14533.7375
292.14735	14763.7375
296.37445	15142.3375
300.59849	15814.8375
304.81948	16467.1375
309.03742	16973.2375
313.25231	16912.6375
317.46415	15953.3375
321.67296	14533.7375
325.87872	13299.9375
330.08145	12716.1375
334.28114	12655.2375
338.47781	12890.3375
342.67145	13314.3375
346.86207	13986.1375
351.04966	14999.1375
355.23424	16050.1375
359.4158	16825.7375
363.59435	17092.2375
367.76989	17129.2375
371.94243	16993.6375
376.11196	16799.8375
380.27849	16637.7375
384.44203	16371.9375
388.60257	16066.9375
392.76012	15923.3375
396.91468	16054.3375
401.06626	16543.1375
405.21485	16958.9375
409.36047	16557.5375
413.50311	15529.5375
417.64277	14511.0375
421.77947	13925.4375
425.9132	13710.8375
430.04396	13683.9375
434.17176	13725.0375
438.2966	13903.2375
442.41849	14201.6375
446.53742	14659.4375
450.6534	15105.4375
454.76644	15352.0375
458.87653	15384.0375
462.98368	15223.3375
467.08789	15009.8375
471.18916	14745.8375
475.2875	14374.5375
479.38291	14057.9375
483.4754	13788.1375
487.56496	13522.8375
491.6516	13326.5375
495.73531	13250.3375
499.81612	13339.0375
503.89401	13507.8375
507.96899	13757.1375
512.04106	13970.2375
516.11023	14209.5375
520.1765	14388.6375
524.23987	14329.6375
528.30034	14040.6375
532.35792	13670.2375
536.41261	13286.0375
540.46441	12968.8375
544.51333	12807.9375
548.55936	12971.4375
552.60252	13382.2375
556.64279	13852.8375
560.6802	14186.2375
564.71473	14485.7375
568.7464	15260.8375
572.7752	15782.1375
576.80114	15173.2375
580.82422	14386.6375
584.84444	14003.7375
588.86181	13881.5375
592.87633	13876.2375
596.888	14050.2375
600.89682	14593.2375
604.9028	16479.9375
608.90594	21845.5375
612.90624	29399.4375
616.90371	28459.4375
620.89834	18764.0375
624.89015	14103.9375
628.87913	13218.3375
632.86528	13355.3375
636.84862	13652.6375
640.82913	13440.1375
644.80683	12746.6375
648.78172	12251.0375
652.75379	12284.6375
656.72306	12938.4375
660.68952	13749.4375
664.65319	13624.2375
668.61405	12775.1375
672.57211	12350.3375
676.52738	12318.9375
680.47986	12373.0375
684.42955	12269.5375
688.37646	12156.3375
692.32058	12174.2375
696.26192	12308.9375
700.20048	12512.8375
704.13626	12663.8375
708.06928	12634.6375
711.99952	12493.7375
715.927	12422.8375
719.85171	12455.2375
723.77365	12459.8375
727.69284	12275.9375
731.60928	12123.8375
735.52295	12029.8375
739.43388	12071.9375
743.34206	12127.5375
747.24749	12181.3375
751.15017	12317.3375
755.05012	12632.1375
758.94733	13403.9375
762.8418	15320.0375
766.73354	18581.3375
770.62254	21985.9375
774.50882	23668.4375
778.39237	22627.0375
782.27321	19090.4375
786.15132	15508.9375
790.02671	13507.2375
793.89938	12598.2375
797.76935	12239.3375
801.6366	12031.2375
805.50115	11928.2375
809.36299	11846.7375
813.22213	11804.6375
817.07857	11776.5375
820.93231	11773.9375
824.78336	11839.3375
828.63172	11911.5375
832.47738	11950.7375
836.32036	11849.6375
840.16066	11720.3375
843.99827	11641.7375
847.8332	11569.1375
851.66546	11570.6375
855.49504	11583.4375
859.32195	11540.3375
863.1462	11444.1375
866.96777	11387.0375
870.78668	11379.4375
874.60293	11421.2375
878.41652	11447.7375
882.22745	11560.4375
886.03573	11610.3375
889.84136	11571.1375
893.64433	11509.3375
897.44466	11445.0375
901.24235	11456.8375
905.0374	11430.9375
908.8298	11371.8375
912.61957	11377.7375
916.40671	11459.1375
920.19121	11575.6375
923.97308	11668.3375
927.75233	11773.6375
931.52895	11905.7375
935.30295	11755.2375
939.07433	11347.3375
942.84309	10932.6375
946.60924	10709.9375
950.37278	10566.6375
954.13371	10521.0375
957.89203	10479.9375
961.64774	10470.4375
965.40086	10400.9375
969.15137	10390.3375
972.89929	10357.1375
976.64461	10328.9375
980.38733	10302.5375
984.12747	10303.0375
987.86502	10336.5375
991.59999	10413.4375
995.33237	10495.0375
999.06217	10713.2375
1002.78939	10974.0375
1006.51404	11254.9375
1010.23611	11575.5375
1013.95561	11738.7375
1017.67255	11645.3375
1021.38692	11467.7375
1025.09872	11250.1375
1028.80796	11068.3375
1032.51465	11048.1375
1036.21877	11194.0375
1039.92035	11338.5375
1043.61937	11436.4375
1047.31584	11518.5375
1051.00976	11553.4375
1054.70114	11546.4375
1058.38998	11575.8375
1062.07627	11685.8375
1065.76003	11802.6375
1069.44126	11886.6375
1073.11995	12027.7375
1076.79611	12181.1375
1080.46974	12467.8375
1084.14085	12852.8375
1087.80943	13309.7375
1091.47549	13519.0375
1095.13903	13254.7375
1098.80005	12684.2375
1102.45857	12201.9375
1106.11456	11936.4375
1109.76805	12000.1375
1113.41903	12333.2375
1117.06751	12911.2375
1120.71348	13654.7375
1124.35696	14480.7375
1127.99793	15170.8375
1131.63641	14982.9375
1135.2724	14004.5375
1138.90589	13115.9375
1142.5369	12641.2375
1146.16542	12362.9375
1149.79145	12204.8375
1153.415	12241.2375
1157.03607	12390.2375
1160.65467	12728.5375
1164.27079	13270.4375
1167.88443	14184.1375
1171.49561	15620.0375
1175.10432	18022.1375
1178.71056	21146.9375
1182.31434	23198.8375
1185.91565	23411.0375
1189.51451	22521.5375
1193.11091	20957.0375
1196.70485	19230.2375
1200.29634	17925.9375
1203.88538	16921.7375
1207.47197	15688.5375
1211.05612	14590.4375
1214.63782	14006.0375
1218.21708	13797.9375
1221.79391	13759.9375
1225.36829	13782.7375
1228.94024	13820.0375
1232.50976	13814.0375
1236.07685	13833.5375
1239.6415	13870.3375
1243.20374	13910.0375
1246.76355	14036.1375
1250.32093	14221.4375
1253.8759	14549.6375
1257.42845	15010.8375
1260.97859	15539.0375
1264.52631	16088.9375
1268.07163	16627.9375
1271.61453	17129.6375
1275.15503	17424.5375
1278.69312	17476.9375
1282.22882	17565.3375
1285.76211	17984.9375
1289.29301	18710.8375
1292.82151	19471.2375
1296.34761	20334.9375
1299.87133	21580.2375
1303.39266	23630.1375
1306.9116	26799.9375
1310.42815	30431.2375
1313.94233	32465.7375
1317.45412	31628.4375
1320.96354	29214.8375
1324.47058	26551.9375
1327.97525	24276.2375
1331.47754	22917.8375
1334.97747	22352.1375
1338.47502	22449.2375
1341.97022	23021.8375
1345.46305	24056.2375
1348.95352	25564.4375
1352.44163	27660.9375
1355.92738	30842.1375
1359.41078	35887.0375
1362.89183	40655.8375
1366.37053	39165.7375
1369.84688	32445.6375
1373.32088	26082.1375
1376.79254	22186.1375
1380.26186	20268.2375
1383.72883	19250.0375
1387.19347	18587.7375
1390.65578	17897.3375
1394.11575	17300.6375
1397.57339	17038.5375
1401.0287	17072.5375
1404.48168	17242.0375
1407.93234	17338.8375
1411.38068	17320.4375
1414.82669	17109.4375
1418.27039	16681.4375
1421.71177	16155.6375
1425.15083	15697.5375
1428.58758	15376.2375
1432.02203	15394.0375
1435.45416	15542.2375
1438.88399	15659.3375
1442.31151	15736.5375
1445.73673	15854.4375
1449.15965	16038.4375
1452.58027	16092.6375
1455.9986	16105.5375
1459.41463	16147.6375
1462.82837	16406.4375
1466.23982	16771.8375
1469.64898	17153.0375
1473.05586	17410.1375
1476.46045	17520.7375
1479.86276	17804.2375
1483.26279	18219.2375
1486.66054	18726.6375
1490.05602	19440.8375
1493.44922	20476.3375
1496.84016	22135.6375
1500.22882	24833.6375
1503.61521	28483.8375
1506.99934	32654.5375
1510.38121	36653.5375
1513.76081	38527.0375
1517.13816	36454.9375
1520.51324	31416.8375
1523.88607	26475.2375
1527.25665	23123.6375
1530.62498	21260.7375
1533.99105	20136.9375
1537.35488	19458.5375
1540.71647	19027.3375
1544.07581	18722.8375
1547.4329	18567.8375
1550.78776	18451.4375
1554.14038	18407.8375
1557.49077	18602.0375
1560.83892	18988.1375
1564.18484	19720.1375
1567.52853	20526.8375
1570.86999	21088.0375
1574.20922	21430.5375
1577.54624	21258.5375
1580.88103	19997.5375
1584.2136	18357.0375
1587.54395	17440.3375
1590.87208	17504.7375
1594.19801	18419.8375
1597.52172	19738.7375
1600.84321	20366.7375
1604.16251	19588.9375
1607.47959	18161.2375
1610.79447	16684.9375
1614.10715	15249.0375
1617.41763	14044.3375
1620.7259	13294.0375
1624.03199	12915.1375
1627.33587	12932.0375
1630.63757	13172.6375
1633.93707	13837.8375
1637.23439	14970.1375
1640.52951	16748.9375
1643.82246	19346.2375
1647.11321	22575.7375
1650.40179	25063.7375
1653.68819	24577.5375
1656.97241	21053.6375
1660.25446	17014.5375
1663.53433	14093.9375
1666.81203	12336.1375
1670.08756	11340.3375
1673.36092	10766.1375
1676.63211	10401.6375
1679.90115	10125.7375
1683.16801	9946.5375
1686.43272	9778.0375
1689.69527	9664.9375
1692.95567	9613.2375
1696.2139	9507.7375
1699.46999	9471.1375
1702.72392	9418.2375
1705.97571	9406.3375
1709.22535	9395.4375
1712.47284	9379.4375
1715.71819	9406.8375
1718.96139	9422.2375
1722.20246	9371.8375
1725.44139	9338.4375
1728.67818	9264.6375
1731.91284	9180.4375
1735.14537	9073.0375
1738.37576	9010.2375
1741.60403	8978.8375
1744.83017	8922.6375
1748.05418	8880.5375
1751.27607	8881.6375
1754.49584	8843.3375
1757.71349	8833.1375
1760.92903	8805.9375
1764.14244	8763.7375
1767.35375	8762.2375
1770.56294	8697.9375
1773.77002	8661.7375
1776.97499	8603.7375
1780.17785	8602.5375
1783.37861	8586.8375
1786.57727	8554.7375
1789.77382	8523.9375
1792.96828	8501.1375
1796.16064	8522.1375
1799.3509	8480.6375
1802.53907	8480.2375
1805.72514	8439.5375
1808.90913	8389.3375
1812.09102	8377.5375
1815.27083	8326.4375
1818.44856	8309.4375
1821.6242	8291.8375
1824.79776	8275.8375
1827.96924	8276.9375
1831.13864	8252.5375
1834.30597	8223.4375
1837.47122	8224.7375
1840.6344	8193.2375
1843.7955	8184.7375
1846.95454	8176.9375
1850.11151	8176.2375
1853.26642	8160.6375
1856.41926	8155.8375
1859.57004	8155.6375
1862.71876	8148.5375
1865.86542	8151.6375
1869.01003	8138.0375
1872.15258	8136.3375
1875.29308	8147.9375
1878.43152	8114.3375
1881.56792	8126.3375
1884.70227	8117.8375
1887.83457	8127.2375
1890.96482	8117.2375
1894.09304	8092.4375
1897.21921	8104.4375
1900.34335	8087.0375
1903.46544	8091.2375
1906.58551	8076.6375
1909.70353	8084.7375
1912.81953	8079.1375
1915.93349	8091.0375
1919.04543	8083.1375
1922.15534	8034.8375
1925.26322	8016.2375
1928.36908	7988.4375
1931.47292	7981.9375
1934.57473	7956.4375
1937.67453	7896.8375
1940.77232	7869.4375
1943.86808	7843.1375
1946.96184	7786.3375
1950.05358	7772.1375
1953.14331	7738.3375
1956.23103	7704.6375
1959.31675	7686.9375
1962.40046	7652.4375
1965.48217	7645.0375
1968.56188	7621.9375
1971.63959	7594.6375
1974.7153	7564.7375
1977.78901	7567.8375
1980.86073	7530.8375
1983.93046	7505.1375
1986.99819	7467.2375
1990.06394	7443.5375
1993.1277	7411.0375
1996.18947	7361.0375
1999.24925	7357.6375
2002.30706	7321.7375
2005.36288	7301.9375
2008.41672	7267.3375
2011.46859	7244.7375
2014.51848	7220.4375
2017.56639	7206.7375
2020.61233	7181.2375
2023.6563	7154.3375
2026.6983	7125.4375
2029.73833	7112.9375
2032.7764	7074.1375
2035.8125	7074.5375
2038.84664	7052.1375
2041.87881	7047.1375
2044.90903	7008.9375
2047.93729	7005.7375
2050.96359	6999.9375
2053.98794	6977.5375
2057.01034	6981.4375
2060.03078	6976.3375
2063.04927	6956.2375
2066.06582	6953.5375
2069.08042	6950.2375
2072.09307	6924.1375
2075.10378	6950.5375
2078.11255	6937.6375
2081.11938	6921.5375
2084.12426	6906.6375
2087.12722	6908.2375
2090.12824	6899.5375
2093.12732	6903.2375
2096.12447	6894.4375
2099.11969	6893.3375
2102.11299	6876.6375
2105.10435	6880.7375
2108.09379	6881.7375
2111.08131	6895.8375
2114.0669	6897.9375
2117.05057	6880.5375
2120.03233	6890.0375
2123.01216	6916.6375
2125.99008	6935.2375
2128.96609	6925.8375
2131.94018	6907.1375
2134.91236	6918.1375
2137.88263	6922.8375
2140.851	6906.7375
2143.81746	6910.8375
2146.78201	6891.8375
2149.74466	6894.0375
2152.7054	6900.6375
2155.66425	6873.6375
2158.6212	6853.8375
2161.57625	6826.9375
2164.52941	6825.5375
2167.48067	6826.8375
2170.43004	6841.3375
2173.37752	6857.1375
2176.32311	6842.3375
2179.26681	6822.1375
2182.20863	6836.8375
2185.14856	6840.5375
2188.08661	6824.7375
2191.02278	6832.7375
2193.95707	6798.8375
2196.88948	6784.2375
2199.82001	6768.4375
2202.74867	6766.8375
2205.67545	6754.7375
2208.60037	6730.6375
2211.52341	6744.3375
2214.44458	6724.0375
2217.36388	6706.9375
2220.28132	6685.6375
2223.1969	6673.0375
2226.11061	6655.5375
2229.02246	6652.4375
2231.93245	6635.0375
2234.84058	6613.7375
2237.74686	6586.9375
2240.65128	6566.5375
2243.55385	6573.6375
2246.45456	6579.7375
2249.35343	6593.1375
2252.25044	6587.7375
2255.14561	6551.7375
2258.03893	6538.4375
2260.93041	6541.1375
2263.82004	6544.2375
2266.70783	6529.7375
2269.59378	6506.9375
2272.4779	6477.6375
2275.36017	6436.9375
2278.24061	6454.3375
2281.11922	6438.1375
2283.996	6437.2375
2286.87094	6413.5375
2289.74405	6369.3375
2292.61534	6352.2375
2295.4848	6364.2375
2298.35243	6358.3375
2301.21824	6351.2375
2304.08223	6339.0375
2306.94439	6339.0375
2309.80474	6346.2375
2312.66327	6335.1375
2315.51999	6311.2375
2318.37489	6319.5375
2321.22797	6288.4375
2324.07925	6285.6375
2326.92871	6284.2375
2329.77637	6269.8375
2332.62222	6265.4375
2335.46626	6254.7375
2338.3085	6271.9375
2341.14893	6245.0375
2343.98756	6257.9375
2346.8244	6245.1375
2349.65943	6247.7375
2352.49267	6269.1375
2355.32411	6287.3375
2358.15376	6290.5375
2360.98161	6313.5375
2363.80768	6302.0375
2366.63195	6324.5375
2369.45444	6351.8375
2372.27514	6319.8375
2375.09405	6301.9375
2377.91118	6272.9375
2380.72652	6248.8375
2383.54009	6220.1375
2386.35187	6193.3375
2389.16188	6153.0375
2391.97011	6129.7375
2394.77657	6111.2375
2397.58125	6084.0375
2400.38416	6081.6375
2403.18529	6042.3375
2405.98466	6031.9375
2408.78226	6023.6375
2411.57809	6018.5375
2414.37216	6009.9375
2417.16446	5993.5375
2419.955	5995.3375
2422.74378	5990.8375
2425.5308	6007.7375
2428.31606	5982.4375
2431.09956	5965.2375
2433.88131	5981.1375
2436.6613	5984.1375
2439.43954	5998.8375
2442.21603	5967.4375
2444.99077	5988.1375
2447.76377	5994.8375
2450.53501	5982.9375
2453.30451	5981.7375
2456.07226	5989.4375
2458.83827	5993.0375
2461.60254	5959.2375
2464.36507	5960.5375
2467.12586	5973.1375
2469.88492	5951.5375
2472.64224	5958.8375
2475.39782	5973.6375
2478.15167	5966.1375
2480.90379	5995.4375
2483.65417	5993.7375
2486.40283	6021.3375
2489.14976	6026.4375
2491.89497	6039.3375
2494.63845	6044.4375
2497.3802	6036.5375
2500.12024	6019.2375
2502.85855	5992.1375
2505.59514	5978.9375
2508.33002	5962.2375
2511.06318	5924.2375
2513.79462	5887.8375
2516.52435	5874.9375
2519.25237	5853.8375
2521.97867	5825.9375
2524.70327	5820.9375
2527.42616	5800.8375
2530.14734	5784.7375
2532.86681	5788.1375
2535.58458	5787.5375
2538.30065	5781.6375
2541.01501	5777.3375
2543.72768	5762.2375
2546.43864	5754.8375
2549.14791	5748.8375
2551.85548	5757.3375
2554.56136	5748.3375
2557.26554	5751.2375
2559.96803	5735.5375
2562.66883	5722.7375
2565.36794	5716.5375
2568.06536	5722.2375
2570.7611	5684.0375
2573.45514	5690.0375
2576.14751	5656.9375
2578.83819	5664.7375
2581.52719	5668.9375
2584.21451	5648.1375
2586.90015	5645.1375
2589.58411	5640.2375
2592.2664	5628.4375
2594.94701	5614.4375
2597.62594	5608.0375
2600.30321	5599.0375
2602.9788	5597.8375
2605.65273	5599.1375
2608.32498	5622.2375
2610.99557	5606.6375
2613.66449	5603.2375
2616.33175	5588.4375
2618.99734	5586.6375
2621.66128	5563.6375
2624.32355	5571.0375
2626.98416	5574.0375
2629.64311	5561.3375
2632.30041	5545.1375
2634.95605	5521.0375
2637.61004	5503.7375
2640.26238	5503.7375
2642.91306	5508.1375
2645.56209	5483.3375
2648.20948	5505.5375
2650.85521	5491.0375
2653.4993	5482.9375
2656.14175	5494.3375
2658.78255	5518.4375
2661.42171	5503.1375
2664.05923	5502.6375
2666.6951	5507.8375
2669.32934	5529.1375
2671.96194	5530.5375
2674.59291	5533.1375
2677.22224	5531.9375
2679.84993	5531.8375
2682.476	5514.5375
2685.10043	5523.5375
2687.72324	5509.0375
2690.34441	5508.3375
2692.96396	5501.9375
2695.58188	5504.6375
2698.19818	5512.3375
2700.81285	5523.5375
2703.4259	5501.9375
2706.03733	5526.1375
2708.64714	5536.3375
2711.25533	5541.2375
2713.86191	5546.4375
2716.46687	5570.6375
2719.07021	5557.7375
2721.67194	5562.3375
2724.27206	5549.3375
2726.87057	5566.1375
2729.46747	5540.8375
2732.06276	5551.4375
2734.65644	5548.3375
2737.24852	5536.4375
2739.83899	5507.6375
2742.42786	5494.9375
2745.01513	5480.7375
2747.60079	5477.6375
2750.18486	5480.9375
2752.76733	5459.0375
2755.3482	5449.1375
2757.92747	5432.8375
2760.50515	5430.6375
2763.08123	5434.8375
2765.65573	5420.8375
2768.22863	5391.6375
2770.79994	5395.6375
2773.36967	5392.7375
2775.9378	5406.8375
2778.50435	5391.7375
2781.06932	5401.0375
2783.6327	5417.0375
2786.1945	5383.8375
2788.75471	5396.1375
2791.31335	5409.3375
2793.87041	5393.7375
2796.42589	5397.5375
2798.97979	5384.5375
2801.53212	5384.0375
2804.08288	5372.1375
2806.63206	5358.9375
2809.17967	5372.4375
2811.72571	5361.9375
2814.27018	5363.9375
2816.81308	5361.5375
2819.35442	5358.2375
2821.89419	5375.8375
2824.43239	5388.9375
2826.96904	5395.0375
2829.50412	5413.7375
2832.03763	5399.5375
2834.56959	5408.8375
2837.1	5411.2375
2839.62884	5450.3375
2842.15613	5500.3375
2844.68186	5591.0375
2847.20604	5657.9375
2849.72867	5752.8375
2852.24974	5755.7375
2854.76927	5766.4375
2857.28724	5760.3375
2859.80367	5733.1375
2862.31855	5716.6375
2864.83189	5690.1375
2867.34368	5676.7375
2869.85393	5677.6375
2872.36264	5670.0375
2874.8698	5669.7375
2877.37543	5659.9375
2879.87952	5654.0375
2882.38207	5665.7375
2884.88308	5618.1375
2887.38256	5640.0375
2889.88051	5630.8375
2892.37692	5612.1375
2894.8718	5628.5375
2897.36515	5627.3375
2899.85698	5625.1375
2902.34727	5628.3375
2904.83604	5648.0375
2907.32328	5637.8375
2909.809	5645.7375
2912.29319	5637.4375
2914.77587	5630.3375
2917.25702	5625.7375
2919.73665	5613.0375
2922.21476	5607.3375
2924.69136	5610.6375
2927.16644	5599.2375
2929.64	5571.4375
2932.11205	5552.8375
2934.58258	5542.8375
2937.05161	5512.3375
2939.51912	5474.8375
2941.98513	5457.2375
2944.44962	5418.3375
2946.91261	5350.9375
2949.37409	5327.1375
2951.83407	5305.8375
2954.29254	5277.0375
2956.74951	5251.2375
2959.20498	5237.1375
2961.65895	5226.3375
2964.11142	5219.1375
2966.56239	5199.4375
2969.01186	5181.6375
2971.45984	5168.9375
2973.90632	5155.1375
2976.35131	5126.5375
2978.7948	5099.2375
2981.23681	5095.3375
2983.67732	5084.1375
2986.11635	5062.5375
2988.55388	5042.6375
2990.98993	5044.9375
2993.4245	5019.8375
2995.85758	5001.9375
2998.28917	4985.2375
3000.71928	4987.3375
3003.14791	4986.6375
3005.57506	4969.7375
3008.00073	4958.8375
3010.42493	4941.7375
3012.84764	4952.0375
3015.26888	4944.1375
3017.68865	4918.4375
3020.10694	4905.6375
3022.52376	4897.1375
3024.9391	4892.7375
3027.35298	4892.1375
3029.76539	4894.8375
3032.17632	4874.6375
3034.5858	4864.6375
3036.9938	4864.6375
3039.40034	4859.6375
3041.80542	4863.1375
3044.20903	4835.3375
3046.61118	4841.7375
3049.01187	4809.1375
3051.4111	4819.7375
3053.80888	4800.4375
3056.20519	4809.4375
3058.60005	4784.1375
3060.99345	4772.7375
3063.3854	4757.3375
3065.7759	4758.6375
3068.16494	4737.6375
3070.55254	4720.5375
3072.93868	4718.9375
3075.32338	4706.0375
3077.70662	4685.0375
3080.08842	4677.5375
3082.46878	4664.1375
3084.84769	4663.1375
3087.22515	4646.5375
3089.60118	4628.6375
3091.97576	4627.2375
3094.3489	4632.5375
3096.72061	4634.8375
3099.09087	4640.1375
3101.4597	4632.6375
3103.82709	4617.8375
3106.19305	4604.9375
3108.55757	4618.8375
3110.92066	4592.7375
3113.28232	4591.5375
3115.64255	4567.0375
3118.00134	4568.6375
3120.35871	4577.0375
3122.71466	4568.0375
3125.06917	4554.9375
3127.42226	4540.9375
3129.77393	4550.8375
3132.12417	4551.0375
3134.47299	4548.8375
3136.82039	4563.3375
3139.16636	4563.4375
3141.51092	4567.8375
3143.85406	4569.3375
3146.19579	4579.4375
3148.53609	4561.3375
3150.87499	4570.5375
3153.21246	4576.2375
3155.54853	4582.8375
3157.88318	4591.4375
3160.21642	4595.2375
3162.54826	4591.1375
3164.87868	4610.9375
3167.2077	4627.0375
3169.5353	4583.1375
3171.86151	4616.4375
3174.18631	4621.3375
3176.5097	4611.1375
3178.83169	4583.9375
3181.15228	4606.5375
3183.47147	4593.8375
3185.78926	4590.8375
3188.10565	4578.2375
3190.42065	4600.4375
3192.73424	4571.9375
3195.04645	4579.8375
3197.35725	4577.8375
3199.66667	4580.0375
3201.97469	4590.5375
3204.28132	4609.4375
3206.58656	4603.1375
3208.8904	4601.3375
3211.19287	4610.2375
3213.49394	4639.1375
3215.79363	4632.9375
3218.09193	4637.1375
3220.38884	4622.4375
3222.68438	4638.7375
3224.97853	4625.9375
3227.2713	4631.3375
3229.56269	4612.4375
3231.8527	4611.1375
3234.14133	4612.2375
3236.42858	4590.3375
3238.71446	4589.8375
3240.99896	4585.4375
3243.28209	4568.3375
3245.56384	4553.0375
3247.84423	4577.4375
3250.12324	4574.0375
3252.40088	4553.7375
3254.67715	4553.8375
3256.95205	4521.7375
3259.22558	4536.2375
3261.49775	4530.9375
3263.76855	4531.3375
3266.03799	4534.8375
3268.30606	4533.4375
3270.57277	4508.4375
3272.83812	4501.5375
3275.10211	4490.8375
3277.36474	4486.7375
3279.62601	4473.0375
3281.88593	4479.6375
3284.14448	4484.7375
3286.40168	4485.1375
3288.65753	4468.7375
3290.91202	4479.3375
3293.16516	4474.1375
3295.41695	4451.1375
3297.66738	4426.0375
3299.91647	4396.8375
3302.16421	4380.6375
3304.4106	4337.6375
3306.65564	4309.0375
3308.89933	4285.8375
3311.14169	4265.5375
3313.38269	4218.1375
3315.62236	4179.3375
3317.86068	4149.4375
3320.09766	4122.9375
3322.3333	4085.1375
3324.5676	4085.9375
3326.80056	4006.1375
3329.03219	3972.3375
3331.26248	1.1375
3333.49143	0.3375
3335.71905	-0.7625
