Data from AgNPs_FTO_APTES_UA_5uM_CRN_1000uM_R6G_10uM_NaF_0.1M_Addition_RamanShift__0__17-23-51-859.txt Node

Date: Mon Feb 07 17:23:51 GMT 2022
User: TCL
Spectrometer: QEP01345
Trigger mode: 4
Integration Time (sec): 7.000000E0
Scans to average: 10
Electric dark correction enabled: true
Nonlinearity correction enabled: false
Boxcar width: 0
XAxis mode: Raman Shifts
Number of Pixels in Spectrum: 1044
>>>>>Begin Spectral Data<<<<<
46.04893	-1.425
50.45542	0.375
54.85868	-0.925
59.25871	-1.125
63.6555	60.475
68.04907	63.375
72.43941	66.875
76.82654	68.275
81.21044	66.275
85.59113	68.475
89.96862	74.575
94.34289	77.075
98.71396	77.875
103.08183	80.475
107.4465	81.775
111.80798	83.775
116.16626	89.175
120.52136	95.075
124.87327	91.775
129.222	104.275
133.56755	105.175
137.90993	117.475
142.24913	134.475
146.58517	150.175
150.91804	174.775
155.24774	210.775
159.57429	261.375
163.89768	340.775
168.21792	454.875
172.53501	619.575
176.84895	860.875
181.15975	1230.075
185.46741	1715.875
189.77193	2368.975
194.07331	3170.775
198.37157	4085.075
202.6667	5048.775
206.9587	6005.675
211.24758	6957.475
215.53334	7901.175
219.81599	8915.275
224.09553	10034.575
228.37195	11255.275
232.64527	12559.375
236.91549	13941.075
241.18261	15341.675
245.44663	16612.875
249.70755	17738.075
253.96539	18751.875
258.22014	19611.875
262.4718	20273.075
266.72039	20744.675
270.96589	21062.975
275.20832	21154.275
279.44768	21017.475
283.68397	20820.275
287.91719	20626.575
292.14735	20527.275
296.37445	20573.775
300.59849	20596.975
304.81948	20729.575
309.03742	20780.575
313.25231	20582.375
317.46415	20282.475
321.67296	19816.175
325.87872	19435.975
330.08145	19245.475
334.28114	19173.075
338.47781	19258.375
342.67145	19424.275
346.86207	19746.175
351.04966	20060.375
355.23424	20403.075
359.4158	20659.675
363.59435	20865.875
367.76989	21020.475
371.94243	21126.975
376.11196	21208.675
380.27849	21252.475
384.44203	21439.975
388.60257	21590.375
392.76012	21841.675
396.91468	22079.775
401.06626	22413.375
405.21485	22628.275
409.36047	22494.575
413.50311	22203.875
417.64277	22000.175
421.77947	21988.975
425.9132	22057.975
430.04396	22242.175
434.17176	22485.675
438.2966	22732.075
442.41849	23258.675
446.53742	24076.575
450.6534	24854.975
454.76644	25394.575
458.87653	25478.475
462.98368	25242.375
467.08789	24870.075
471.18916	24581.675
475.2875	24362.475
479.38291	24299.675
483.4754	24206.775
487.56496	23929.475
491.6516	23364.675
495.73531	22819.775
499.81612	22413.875
503.89401	22384.575
507.96899	22373.475
512.04106	22272.875
516.11023	22109.575
520.1765	21901.675
524.23987	21736.575
528.30034	21610.575
532.35792	21530.575
536.41261	21299.575
540.46441	21012.675
544.51333	20996.775
548.55936	21268.675
552.60252	21768.475
556.64279	22416.075
560.6802	23026.775
564.71473	23419.275
568.7464	23951.275
572.7752	24719.675
576.80114	25298.375
580.82422	25700.375
584.84444	26394.175
588.86181	27558.575
592.87633	28833.375
596.888	28974.975
600.89682	27796.075
604.9028	27020.175
608.90594	27943.275
612.90624	29403.575
616.90371	27629.075
620.89834	23442.475
624.89015	21536.075
628.87913	21297.475
632.86528	21463.275
636.84862	21481.475
640.82913	21187.575
644.80683	20710.175
648.78172	20406.275
652.75379	20381.375
656.72306	20563.575
660.68952	20835.275
664.65319	20694.875
668.61405	20332.075
672.57211	20223.575
676.52738	20351.475
680.47986	20397.275
684.42955	20261.675
688.37646	20154.875
692.32058	20243.675
696.26192	20393.075
700.20048	20671.275
704.13626	20848.175
708.06928	20894.575
711.99952	20841.475
715.927	20863.475
719.85171	20925.075
723.77365	20840.075
727.69284	20610.675
731.60928	20388.575
735.52295	20343.375
739.43388	20417.475
743.34206	20400.675
747.24749	20522.575
751.15017	20704.575
755.05012	21070.875
758.94733	21665.075
762.8418	22677.275
766.73354	24196.675
770.62254	25646.275
774.50882	25935.775
778.39237	24857.375
782.27321	23105.075
786.15132	21601.075
790.02671	20758.975
793.89938	20315.775
797.76935	20140.275
801.6366	20058.975
805.50115	20000.375
809.36299	19927.975
813.22213	19823.475
817.07857	19783.475
820.93231	19746.475
824.78336	19597.975
828.63172	19514.675
832.47738	19461.175
836.32036	19409.475
840.16066	19478.375
843.99827	19451.275
847.8332	19393.675
851.66546	19381.475
855.49504	19378.275
859.32195	19355.075
863.1462	19281.775
866.96777	19270.575
870.78668	19225.775
874.60293	19225.475
878.41652	19248.975
882.22745	19383.875
886.03573	19369.675
889.84136	19381.575
893.64433	19334.075
897.44466	19226.675
901.24235	19167.975
905.0374	19097.075
908.8298	19036.875
912.61957	19071.875
916.40671	19253.675
920.19121	19558.475
923.97308	19751.275
927.75233	19806.175
931.52895	19551.775
935.30295	19220.875
939.07433	18850.075
942.84309	18579.775
946.60924	18413.975
950.37278	18342.275
954.13371	18381.375
957.89203	18373.475
961.64774	18371.275
965.40086	18333.675
969.15137	18269.175
972.89929	18121.775
976.64461	18055.675
980.38733	17969.075
984.12747	17987.175
987.86502	18068.575
991.59999	18181.075
995.33237	18365.875
999.06217	18655.975
1002.78939	19015.375
1006.51404	19373.575
1010.23611	19696.175
1013.95561	19856.975
1017.67255	19926.275
1021.38692	19749.575
1025.09872	19383.975
1028.80796	19069.275
1032.51465	19000.175
1036.21877	19109.875
1039.92035	19252.675
1043.61937	19294.175
1047.31584	19310.275
1051.00976	19286.075
1054.70114	19299.475
1058.38998	19359.375
1062.07627	19545.775
1065.76003	19742.175
1069.44126	19938.575
1073.11995	20203.675
1076.79611	20376.475
1080.46974	20505.375
1084.14085	20622.275
1087.80943	20815.675
1091.47549	21056.575
1095.13903	21133.375
1098.80005	20922.075
1102.45857	20473.675
1106.11456	20100.275
1109.76805	19931.475
1113.41903	20026.175
1117.06751	20196.975
1120.71348	20426.975
1124.35696	20809.775
1127.99793	21144.675
1131.63641	21353.175
1135.2724	21194.975
1138.90589	20980.275
1142.5369	21079.475
1146.16542	21263.275
1149.79145	21602.375
1153.415	21933.475
1157.03607	22320.975
1160.65467	22998.475
1164.27079	24108.175
1167.88443	25413.175
1171.49561	26951.275
1175.10432	28796.775
1178.71056	31167.375
1182.31434	33161.675
1185.91565	33877.975
1189.51451	33296.875
1193.11091	32255.375
1196.70485	31072.175
1200.29634	30060.075
1203.88538	29410.575
1207.47197	29007.075
1211.05612	28559.275
1214.63782	27978.175
1218.21708	27283.475
1221.79391	26720.575
1225.36829	26366.575
1228.94024	25987.575
1232.50976	25521.375
1236.07685	25002.275
1239.6415	24642.375
1243.20374	24635.275
1246.76355	24755.375
1250.32093	25067.175
1253.8759	25552.075
1257.42845	26112.275
1260.97859	26850.875
1264.52631	27530.075
1268.07163	28239.875
1271.61453	28930.975
1275.15503	29659.875
1278.69312	30586.175
1282.22882	31713.875
1285.76211	33188.275
1289.29301	34977.775
1292.82151	37059.575
1296.34761	39496.975
1299.87133	42053.075
1303.39266	44446.475
1306.9116	46572.875
1310.42815	48265.975
1313.94233	49361.475
1317.45412	49260.575
1320.96354	48369.075
1324.47058	47393.675
1327.97525	46373.375
1331.47754	45615.775
1334.97747	44891.775
1338.47502	44137.275
1341.97022	43238.475
1345.46305	42363.375
1348.95352	41676.475
1352.44163	41831.175
1355.92738	43070.375
1359.41078	45282.775
1362.89183	47070.575
1366.37053	46605.075
1369.84688	42962.175
1373.32088	38093.875
1376.79254	34857.675
1380.26186	33945.375
1383.72883	34263.575
1387.19347	34474.375
1390.65578	34370.775
1394.11575	34511.675
1397.57339	35109.875
1401.0287	35943.075
1404.48168	36473.875
1407.93234	36245.375
1411.38068	35162.375
1414.82669	33589.475
1418.27039	31786.375
1421.71177	30129.975
1425.15083	28744.475
1428.58758	28094.175
1432.02203	28346.875
1435.45416	29175.675
1438.88399	30200.175
1442.31151	30993.075
1445.73673	31507.475
1449.15965	31937.075
1452.58027	32187.675
1455.9986	32134.775
1459.41463	32215.175
1462.82837	32450.475
1466.23982	33002.375
1469.64898	33535.675
1473.05586	33780.675
1476.46045	33791.175
1479.86276	33592.675
1483.26279	33199.275
1486.66054	32902.675
1490.05602	32941.275
1493.44922	33130.875
1496.84016	33326.175
1500.22882	33730.075
1503.61521	34393.875
1506.99934	35369.075
1510.38121	36246.375
1513.76081	36562.075
1517.13816	35989.375
1520.51324	34952.175
1523.88607	34297.975
1527.25665	34206.175
1530.62498	34376.475
1533.99105	34331.475
1537.35488	33920.175
1540.71647	33142.275
1544.07581	32044.375
1547.4329	30949.175
1550.78776	29967.875
1554.14038	29266.075
1557.49077	28866.475
1560.83892	28632.675
1564.18484	28651.675
1567.52853	28885.775
1570.86999	29382.175
1574.20922	30183.375
1577.54624	30869.975
1580.88103	31255.175
1584.2136	31680.975
1587.54395	32660.475
1590.87208	34281.475
1594.19801	36297.275
1597.52172	38111.775
1600.84321	38588.075
1604.16251	36696.775
1607.47959	33318.475
1610.79447	29867.275
1614.10715	26963.675
1617.41763	24792.275
1620.7259	23496.875
1624.03199	22903.775
1627.33587	23116.175
1630.63757	24022.775
1633.93707	25845.175
1637.23439	28758.675
1640.52951	33040.875
1643.82246	38205.975
1647.11321	42307.875
1650.40179	42888.375
1653.68819	39276.675
1656.97241	33378.975
1660.25446	27734.175
1663.53433	23732.275
1666.81203	21183.975
1670.08756	19618.875
1673.36092	18690.875
1676.63211	18076.575
1679.90115	17664.375
1683.16801	17305.575
1686.43272	17053.075
1689.69527	16854.175
1692.95567	16726.175
1696.2139	16621.675
1699.46999	16525.975
1702.72392	16427.675
1705.97571	16399.075
1709.22535	16354.775
1712.47284	16260.575
1715.71819	16243.975
1718.96139	16219.475
1722.20246	16162.375
1725.44139	16055.975
1728.67818	15960.375
1731.91284	15890.375
1735.14537	15786.175
1738.37576	15679.275
1741.60403	15647.375
1744.83017	15574.375
1748.05418	15569.675
1751.27607	15511.075
1754.49584	15486.675
1757.71349	15477.275
1760.92903	15465.475
1764.14244	15421.975
1767.35375	15439.875
1770.56294	15366.375
1773.77002	15333.475
1776.97499	15289.675
1780.17785	15258.875
1783.37861	15221.675
1786.57727	15215.975
1789.77382	15174.575
1792.96828	15134.975
1796.16064	15092.275
1799.3509	15056.775
1802.53907	14992.375
1805.72514	14977.175
1808.90913	14926.375
1812.09102	14878.075
1815.27083	14825.975
1818.44856	14789.475
1821.6242	14771.475
1824.79776	14742.275
1827.96924	14693.275
1831.13864	14701.775
1834.30597	14688.775
1837.47122	14648.075
1840.6344	14658.275
1843.7955	14652.975
1846.95454	14654.775
1850.11151	14607.875
1853.26642	14599.575
1856.41926	14570.775
1859.57004	14609.275
1862.71876	14551.275
1865.86542	14536.175
1869.01003	14555.175
1872.15258	14490.675
1875.29308	14496.175
1878.43152	14465.175
1881.56792	14456.675
1884.70227	14447.575
1887.83457	14427.975
1890.96482	14383.075
1894.09304	14356.175
1897.21921	14376.775
1900.34335	14354.375
1903.46544	14328.575
1906.58551	14349.275
1909.70353	14304.875
1912.81953	14259.575
1915.93349	14221.575
1919.04543	14200.775
1922.15534	14152.575
1925.26322	14171.175
1928.36908	14118.575
1931.47292	14090.375
1934.57473	14056.675
1937.67453	14023.575
1940.77232	13995.275
1943.86808	13943.375
1946.96184	13844.675
1950.05358	13816.175
1953.14331	13810.075
1956.23103	13755.475
1959.31675	13700.975
1962.40046	13665.575
1965.48217	13611.775
1968.56188	13533.375
1971.63959	13501.375
1974.7153	13474.375
1977.78901	13427.975
1980.86073	13393.075
1983.93046	13349.075
1986.99819	13306.675
1990.06394	13266.875
1993.1277	13200.975
1996.18947	13158.375
1999.24925	13182.175
2002.30706	13095.275
2005.36288	13046.175
2008.41672	13019.875
2011.46859	12984.575
2014.51848	12948.575
2017.56639	12911.075
2020.61233	12888.875
2023.6563	12831.075
2026.6983	12774.075
2029.73833	12752.575
2032.7764	12710.075
2035.8125	12704.875
2038.84664	12684.775
2041.87881	12653.675
2044.90903	12635.875
2047.93729	12608.675
2050.96359	12585.875
2053.98794	12566.475
2057.01034	12548.375
2060.03078	12548.975
2063.04927	12515.375
2066.06582	12533.775
2069.08042	12534.575
2072.09307	12529.575
2075.10378	12460.175
2078.11255	12452.975
2081.11938	12481.575
2084.12426	12483.675
2087.12722	12454.375
2090.12824	12442.975
2093.12732	12469.875
2096.12447	12453.775
2099.11969	12430.175
2102.11299	12433.575
2105.10435	12404.175
2108.09379	12410.675
2111.08131	12432.375
2114.0669	12390.375
2117.05057	12447.375
2120.03233	12435.075
2123.01216	12465.075
2125.99008	12470.175
2128.96609	12439.275
2131.94018	12469.075
2134.91236	12458.375
2137.88263	12477.475
2140.851	12457.375
2143.81746	12469.675
2146.78201	12443.975
2149.74466	12446.475
2152.7054	12429.875
2155.66425	12382.175
2158.6212	12393.075
2161.57625	12380.075
2164.52941	12347.475
2167.48067	12351.975
2170.43004	12368.775
2173.37752	12369.275
2176.32311	12355.575
2179.26681	12370.275
2182.20863	12349.175
2185.14856	12342.675
2188.08661	12367.075
2191.02278	12386.875
2193.95707	12337.575
2196.88948	12324.675
2199.82001	12294.575
2202.74867	12276.375
2205.67545	12241.875
2208.60037	12226.175
2211.52341	12223.575
2214.44458	12201.875
2217.36388	12144.075
2220.28132	12133.975
2223.1969	12071.875
2226.11061	12083.475
2229.02246	12061.575
2231.93245	12046.875
2234.84058	11982.375
2237.74686	11959.675
2240.65128	12000.575
2243.55385	11953.575
2246.45456	11963.475
2249.35343	11928.975
2252.25044	11926.575
2255.14561	11874.475
2258.03893	11845.575
2260.93041	11815.275
2263.82004	11805.675
2266.70783	11753.875
2269.59378	11717.075
2272.4779	11689.175
2275.36017	11626.275
2278.24061	11616.975
2281.11922	11607.575
2283.996	11606.475
2286.87094	11558.675
2289.74405	11520.275
2292.61534	11516.275
2295.4848	11501.475
2298.35243	11504.875
2301.21824	11515.575
2304.08223	11514.875
2306.94439	11491.475
2309.80474	11499.375
2312.66327	11486.875
2315.51999	11477.675
2318.37489	11448.275
2321.22797	11443.775
2324.07925	11419.275
2326.92871	11402.975
2329.77637	11378.875
2332.62222	11391.275
2335.46626	11369.375
2338.3085	11345.975
2341.14893	11323.275
2343.98756	11344.875
2346.8244	11335.275
2349.65943	11312.575
2352.49267	11293.075
2355.32411	11278.975
2358.15376	11274.275
2360.98161	11310.975
2363.80768	11294.075
2366.63195	11290.475
2369.45444	11256.075
2372.27514	11263.375
2375.09405	11237.075
2377.91118	11191.075
2380.72652	11151.075
2383.54009	11151.675
2386.35187	11124.075
2389.16188	11082.475
2391.97011	11064.375
2394.77657	11065.775
2397.58125	11036.175
2400.38416	11006.275
2403.18529	10980.275
2405.98466	10999.775
2408.78226	10968.675
2411.57809	10943.575
2414.37216	10954.575
2417.16446	10950.675
2419.955	10905.375
2422.74378	10898.175
2425.5308	10900.575
2428.31606	10864.775
2431.09956	10869.775
2433.88131	10849.975
2436.6613	10878.575
2439.43954	10861.675
2442.21603	10847.875
2444.99077	10828.775
2447.76377	10835.075
2450.53501	10834.775
2453.30451	10816.475
2456.07226	10815.375
2458.83827	10779.475
2461.60254	10778.275
2464.36507	10796.075
2467.12586	10768.075
2469.88492	10750.575
2472.64224	10763.075
2475.39782	10747.875
2478.15167	10772.475
2480.90379	10755.075
2483.65417	10772.475
2486.40283	10752.275
2489.14976	10769.575
2491.89497	10750.175
2494.63845	10774.175
2497.3802	10762.775
2500.12024	10742.775
2502.85855	10727.975
2505.59514	10742.075
2508.33002	10700.175
2511.06318	10685.775
2513.79462	10683.475
2516.52435	10679.775
2519.25237	10669.275
2521.97867	10638.875
2524.70327	10633.675
2527.42616	10619.775
2530.14734	10630.575
2532.86681	10624.075
2535.58458	10613.975
2538.30065	10600.575
2541.01501	10604.475
2543.72768	10592.375
2546.43864	10559.275
2549.14791	10533.875
2551.85548	10547.175
2554.56136	10527.175
2557.26554	10514.275
2559.96803	10520.775
2562.66883	10480.275
2565.36794	10470.675
2568.06536	10476.575
2570.7611	10470.575
2573.45514	10447.975
2576.14751	10424.675
2578.83819	10405.575
2581.52719	10415.275
2584.21451	10407.075
2586.90015	10424.275
2589.58411	10402.675
2592.2664	10394.075
2594.94701	10362.075
2597.62594	10335.275
2600.30321	10327.175
2602.9788	10334.575
2605.65273	10365.275
2608.32498	10355.075
2610.99557	10345.775
2613.66449	10348.975
2616.33175	10350.975
2618.99734	10314.075
2621.66128	10311.575
2624.32355	10268.875
2626.98416	10287.575
2629.64311	10248.575
2632.30041	10249.775
2634.95605	10236.575
2637.61004	10236.375
2640.26238	10237.675
2642.91306	10208.775
2645.56209	10191.975
2648.20948	10229.075
2650.85521	10195.275
2653.4993	10217.075
2656.14175	10225.575
2658.78255	10235.675
2661.42171	10245.875
2664.05923	10243.475
2666.6951	10270.375
2669.32934	10263.175
2671.96194	10245.675
2674.59291	10243.275
2677.22224	10233.775
2679.84993	10240.075
2682.476	10189.475
2685.10043	10225.075
2687.72324	10180.475
2690.34441	10210.675
2692.96396	10199.675
2695.58188	10215.975
2698.19818	10220.175
2700.81285	10214.875
2703.4259	10211.375
2706.03733	10215.975
2708.64714	10194.375
2711.25533	10234.675
2713.86191	10227.075
2716.46687	10243.075
2719.07021	10237.675
2721.67194	10262.675
2724.27206	10240.675
2726.87057	10263.275
2729.46747	10261.375
2732.06276	10276.275
2734.65644	10266.675
2737.24852	10252.475
2739.83899	10216.475
2742.42786	10246.975
2745.01513	10218.275
2747.60079	10214.675
2750.18486	10197.975
2752.76733	10189.175
2755.3482	10170.275
2757.92747	10185.475
2760.50515	10169.775
2763.08123	10184.275
2765.65573	10146.575
2768.22863	10140.675
2770.79994	10141.875
2773.36967	10136.375
2775.9378	10141.175
2778.50435	10140.275
2781.06932	10130.475
2783.6327	10122.175
2786.1945	10127.875
2788.75471	10131.675
2791.31335	10119.575
2793.87041	10114.175
2796.42589	10089.375
2798.97979	10082.375
2801.53212	10043.775
2804.08288	10036.275
2806.63206	10000.475
2809.17967	10005.275
2811.72571	9957.575
2814.27018	9975.975
2816.81308	9949.275
2819.35442	9908.475
2821.89419	9890.875
2824.43239	9888.875
2826.96904	9905.075
2829.50412	9897.275
2832.03763	9881.475
2834.56959	9873.575
2837.1	9846.875
2839.62884	9880.775
2842.15613	9889.175
2844.68186	9943.975
2847.20604	9990.875
2849.72867	10001.375
2852.24974	10008.575
2854.76927	9969.475
2857.28724	9971.575
2859.80367	9952.375
2862.31855	9916.175
2864.83189	9927.075
2867.34368	9885.075
2869.85393	9884.375
2872.36264	9895.675
2874.8698	9883.875
2877.37543	9887.475
2879.87952	9880.375
2882.38207	9856.375
2884.88308	9868.375
2887.38256	9863.875
2889.88051	9831.375
2892.37692	9866.775
2894.8718	9865.475
2897.36515	9869.375
2899.85698	9860.375
2902.34727	9904.375
2904.83604	9926.475
2907.32328	9914.975
2909.809	9896.075
2912.29319	9923.575
2914.77587	9905.775
2917.25702	9887.875
2919.73665	9873.675
2922.21476	9880.175
2924.69136	9887.475
2927.16644	9899.675
2929.64	9876.775
2932.11205	9839.175
2934.58258	9822.175
2937.05161	9835.575
2939.51912	9816.875
2941.98513	9792.975
2944.44962	9758.675
2946.91261	9711.675
2949.37409	9709.075
2951.83407	9688.575
2954.29254	9678.675
2956.74951	9649.975
2959.20498	9658.075
2961.65895	9621.475
2964.11142	9603.075
2966.56239	9597.875
2969.01186	9582.475
2971.45984	9560.875
2973.90632	9550.475
2976.35131	9524.375
2978.7948	9514.075
2981.23681	9466.575
2983.67732	9448.675
2986.11635	9437.275
2988.55388	9406.975
2990.98993	9350.875
2993.4245	9334.375
2995.85758	9322.275
2998.28917	9255.975
3000.71928	9268.675
3003.14791	9239.675
3005.57506	9234.375
3008.00073	9229.975
3010.42493	9180.275
3012.84764	9168.275
3015.26888	9152.675
3017.68865	9123.475
3020.10694	9093.075
3022.52376	9100.775
3024.9391	9088.575
3027.35298	9058.675
3029.76539	9047.875
3032.17632	9047.675
3034.5858	9018.875
3036.9938	9022.275
3039.40034	9012.875
3041.80542	9010.775
3044.20903	8992.975
3046.61118	8991.975
3049.01187	8972.375
3051.4111	8949.575
3053.80888	8921.775
3056.20519	8921.175
3058.60005	8893.375
3060.99345	8880.275
3063.3854	8860.575
3065.7759	8825.675
3068.16494	8786.175
3070.55254	8746.575
3072.93868	8743.075
3075.32338	8703.775
3077.70662	8694.875
3080.08842	8646.075
3082.46878	8643.475
3084.84769	8608.175
3087.22515	8604.775
3089.60118	8621.675
3091.97576	8620.975
3094.3489	8644.675
3096.72061	8620.475
3099.09087	8619.475
3101.4597	8592.875
3103.82709	8597.475
3106.19305	8576.575
3108.55757	8556.275
3110.92066	8533.775
3113.28232	8530.075
3115.64255	8492.375
3118.00134	8473.775
3120.35871	8467.375
3122.71466	8443.775
3125.06917	8418.075
3127.42226	8414.975
3129.77393	8422.275
3132.12417	8393.175
3134.47299	8404.775
3136.82039	8384.975
3139.16636	8400.475
3141.51092	8368.275
3143.85406	8366.975
3146.19579	8352.075
3148.53609	8352.675
3150.87499	8353.975
3153.21246	8360.775
3155.54853	8375.075
3157.88318	8370.275
3160.21642	8400.875
3162.54826	8359.975
3164.87868	8369.175
3167.2077	8367.275
3169.5353	8351.675
3171.86151	8371.575
3174.18631	8356.775
3176.5097	8356.175
3178.83169	8339.075
3181.15228	8345.975
3183.47147	8323.075
3185.78926	8305.575
3188.10565	8309.775
3190.42065	8283.975
3192.73424	8299.075
3195.04645	8268.275
3197.35725	8260.475
3199.66667	8245.075
3201.97469	8237.975
3204.28132	8236.875
3206.58656	8254.275
3208.8904	8243.375
3211.19287	8255.975
3213.49394	8244.275
3215.79363	8260.275
3218.09193	8243.875
3220.38884	8249.575
3222.68438	8237.475
3224.97853	8243.575
3227.2713	8234.175
3229.56269	8221.475
3231.8527	8236.775
3234.14133	8188.075
3236.42858	8188.575
3238.71446	8175.375
3240.99896	8168.475
3243.28209	8134.375
3245.56384	8139.975
3247.84423	8130.875
3250.12324	8109.475
3252.40088	8109.075
3254.67715	8087.275
3256.95205	8054.875
3259.22558	8056.275
3261.49775	8044.375
3263.76855	8014.275
3266.03799	8010.275
3268.30606	7994.975
3270.57277	7973.775
3272.83812	7957.075
3275.10211	7939.275
3277.36474	7940.875
3279.62601	7949.575
3281.88593	7925.775
3284.14448	7954.275
3286.40168	7938.475
3288.65753	7944.275
3290.91202	7948.975
3293.16516	7926.975
3295.41695	7865.075
3297.66738	7840.775
3299.91647	7780.875
3302.16421	7746.175
3304.4106	7675.475
3306.65564	7612.175
3308.89933	7592.775
3311.14169	7508.975
3313.38269	7447.575
3315.62236	7416.275
3317.86068	7350.175
3320.09766	7318.275
3322.3333	7239.575
3324.5676	7178.675
3326.80056	7067.775
3329.03219	7052.175
3331.26248	2.975
3333.49143	0.375
3335.71905	-1.025
