Data from AuAgCoreShell_UA_100uM_CRN_0uM_R6G_10uM_Scan_RamanShift__3__14-12-49-765.txt Node

Date: Thu Jun 23 14:12:49 BST 2022
User: TCL
Spectrometer: QEP01345
Trigger mode: 4
Integration Time (sec): 7.000000E0
Scans to average: 10
Electric dark correction enabled: true
Nonlinearity correction enabled: false
Boxcar width: 0
XAxis mode: Raman Shifts
Number of Pixels in Spectrum: 1044
>>>>>Begin Spectral Data<<<<<
46.04893	-0.7875
50.45542	-0.8875
54.85868	0.5125
59.25871	-0.1875
63.6555	33.2125
68.04907	36.0125
72.43941	37.5125
76.82654	40.8125
81.21044	47.1125
85.59113	47.3125
89.96862	52.5125
94.34289	53.3125
98.71396	52.7125
103.08183	54.6125
107.4465	56.4125
111.80798	52.4125
116.16626	58.2125
120.52136	54.3125
124.87327	55.0125
129.222	53.7125
133.56755	52.9125
137.90993	54.5125
142.24913	50.6125
146.58517	51.0125
150.91804	54.8125
155.24774	52.3125
159.57429	55.7125
163.89768	57.2125
168.21792	63.4125
172.53501	71.5125
176.84895	83.5125
181.15975	99.7125
185.46741	126.3125
189.77193	164.9125
194.07331	213.3125
198.37157	268.0125
202.6667	327.9125
206.9587	382.4125
211.24758	440.0125
215.53334	506.0125
219.81599	560.8125
224.09553	633.2125
228.37195	712.3125
232.64527	809.1125
236.91549	895.5125
241.18261	985.1125
245.44663	1076.4125
249.70755	1155.8125
253.96539	1227.1125
258.22014	1264.8125
262.4718	1288.5125
266.72039	1294.6125
270.96589	1286.3125
275.20832	1260.6125
279.44768	1216.9125
283.68397	1178.5125
287.91719	1134.7125
292.14735	1106.2125
296.37445	1073.0125
300.59849	1057.6125
304.81948	1036.2125
309.03742	1022.1125
313.25231	1007.3125
317.46415	987.5125
321.67296	960.6125
325.87872	958.6125
330.08145	956.8125
334.28114	947.3125
338.47781	962.0125
342.67145	966.6125
346.86207	983.0125
351.04966	1004.4125
355.23424	1034.8125
359.4158	1042.8125
363.59435	1064.0125
367.76989	1067.7125
371.94243	1069.9125
376.11196	1069.2125
380.27849	1077.7125
384.44203	1080.6125
388.60257	1090.7125
392.76012	1090.4125
396.91468	1096.5125
401.06626	1110.7125
405.21485	1111.8125
409.36047	1114.5125
413.50311	1111.5125
417.64277	1098.8125
421.77947	1091.1125
425.9132	1094.7125
430.04396	1099.8125
434.17176	1099.5125
438.2966	1112.6125
442.41849	1117.4125
446.53742	1133.5125
450.6534	1139.8125
454.76644	1147.5125
458.87653	1154.1125
462.98368	1158.5125
467.08789	1155.1125
471.18916	1149.8125
475.2875	1151.3125
479.38291	1151.3125
483.4754	1148.4125
487.56496	1154.6125
491.6516	1155.0125
495.73531	1164.5125
499.81612	1158.1125
503.89401	1159.5125
507.96899	1153.2125
512.04106	1164.0125
516.11023	1151.5125
520.1765	1147.5125
524.23987	1152.3125
528.30034	1146.4125
532.35792	1137.2125
536.41261	1129.6125
540.46441	1128.2125
544.51333	1117.7125
548.55936	1118.9125
552.60252	1117.1125
556.64279	1119.3125
560.6802	1119.7125
564.71473	1129.2125
568.7464	1140.0125
572.7752	1138.7125
576.80114	1130.7125
580.82422	1130.3125
584.84444	1144.7125
588.86181	1135.2125
592.87633	1145.6125
596.888	1152.8125
600.89682	1181.6125
604.9028	1216.8125
608.90594	1308.8125
612.90624	1443.8125
616.90371	1439.2125
620.89834	1333.3125
624.89015	1287.3125
628.87913	1288.8125
632.86528	1275.9125
636.84862	1267.3125
640.82913	1238.6125
644.80683	1217.8125
648.78172	1189.3125
652.75379	1181.0125
656.72306	1186.4125
660.68952	1193.2125
664.65319	1191.6125
668.61405	1179.9125
672.57211	1177.8125
676.52738	1186.2125
680.47986	1209.6125
684.42955	1240.5125
688.37646	1241.4125
692.32058	1241.2125
696.26192	1208.3125
700.20048	1198.6125
704.13626	1190.4125
708.06928	1188.2125
711.99952	1184.6125
715.927	1178.7125
719.85171	1177.7125
723.77365	1173.6125
727.69284	1176.4125
731.60928	1169.3125
735.52295	1156.6125
739.43388	1162.8125
743.34206	1157.7125
747.24749	1160.8125
751.15017	1160.7125
755.05012	1160.9125
758.94733	1169.6125
762.8418	1200.3125
766.73354	1248.6125
770.62254	1292.5125
774.50882	1327.3125
778.39237	1296.7125
782.27321	1253.6125
786.15132	1215.7125
790.02671	1193.4125
793.89938	1183.5125
797.76935	1190.4125
801.6366	1182.0125
805.50115	1190.1125
809.36299	1196.7125
813.22213	1208.4125
817.07857	1199.6125
820.93231	1189.8125
824.78336	1179.1125
828.63172	1167.3125
832.47738	1167.3125
836.32036	1165.7125
840.16066	1168.8125
843.99827	1175.9125
847.8332	1166.2125
851.66546	1156.4125
855.49504	1153.2125
859.32195	1149.3125
863.1462	1158.7125
866.96777	1150.8125
870.78668	1156.9125
874.60293	1163.0125
878.41652	1172.0125
882.22745	1194.1125
886.03573	1203.7125
889.84136	1209.5125
893.64433	1233.1125
897.44466	1232.2125
901.24235	1237.1125
905.0374	1235.2125
908.8298	1244.4125
912.61957	1246.7125
916.40671	1251.3125
920.19121	1264.8125
923.97308	1292.7125
927.75233	1292.1125
931.52895	1301.2125
935.30295	1281.4125
939.07433	1269.1125
942.84309	1236.3125
946.60924	1229.3125
950.37278	1200.5125
954.13371	1196.4125
957.89203	1175.3125
961.64774	1157.3125
965.40086	1152.1125
969.15137	1130.4125
972.89929	1126.5125
976.64461	1123.3125
980.38733	1120.2125
984.12747	1115.9125
987.86502	1100.2125
991.59999	1110.7125
995.33237	1100.7125
999.06217	1110.8125
1002.78939	1113.7125
1006.51404	1119.7125
1010.23611	1128.8125
1013.95561	1132.3125
1017.67255	1139.9125
1021.38692	1145.2125
1025.09872	1140.8125
1028.80796	1125.5125
1032.51465	1129.7125
1036.21877	1117.5125
1039.92035	1113.0125
1043.61937	1098.1125
1047.31584	1097.1125
1051.00976	1091.9125
1054.70114	1092.8125
1058.38998	1097.1125
1062.07627	1093.6125
1065.76003	1101.3125
1069.44126	1107.6125
1073.11995	1107.3125
1076.79611	1103.5125
1080.46974	1107.0125
1084.14085	1104.7125
1087.80943	1101.1125
1091.47549	1101.9125
1095.13903	1088.5125
1098.80005	1076.1125
1102.45857	1067.7125
1106.11456	1058.6125
1109.76805	1055.8125
1113.41903	1068.5125
1117.06751	1084.8125
1120.71348	1104.3125
1124.35696	1126.4125
1127.99793	1152.1125
1131.63641	1170.9125
1135.2724	1156.7125
1138.90589	1147.5125
1142.5369	1111.4125
1146.16542	1089.2125
1149.79145	1078.9125
1153.415	1058.6125
1157.03607	1057.6125
1160.65467	1049.7125
1164.27079	1052.2125
1167.88443	1059.2125
1171.49561	1075.2125
1175.10432	1112.0125
1178.71056	1158.3125
1182.31434	1202.6125
1185.91565	1191.0125
1189.51451	1172.1125
1193.11091	1142.3125
1196.70485	1122.7125
1200.29634	1115.9125
1203.88538	1113.4125
1207.47197	1087.0125
1211.05612	1069.5125
1214.63782	1054.4125
1218.21708	1043.4125
1221.79391	1048.9125
1225.36829	1046.1125
1228.94024	1038.8125
1232.50976	1042.7125
1236.07685	1042.2125
1239.6415	1046.2125
1243.20374	1055.9125
1246.76355	1054.5125
1250.32093	1062.2125
1253.8759	1061.6125
1257.42845	1066.4125
1260.97859	1080.9125
1264.52631	1080.5125
1268.07163	1092.6125
1271.61453	1101.6125
1275.15503	1097.4125
1278.69312	1108.6125
1282.22882	1099.7125
1285.76211	1109.0125
1289.29301	1120.1125
1292.82151	1130.1125
1296.34761	1150.1125
1299.87133	1171.9125
1303.39266	1213.5125
1306.9116	1262.1125
1310.42815	1312.5125
1313.94233	1332.4125
1317.45412	1315.4125
1320.96354	1262.3125
1324.47058	1217.1125
1327.97525	1180.4125
1331.47754	1155.2125
1334.97747	1153.5125
1338.47502	1162.9125
1341.97022	1173.9125
1345.46305	1212.4125
1348.95352	1269.5125
1352.44163	1324.4125
1355.92738	1401.9125
1359.41078	1492.7125
1362.89183	1603.1125
1366.37053	1605.1125
1369.84688	1501.3125
1373.32088	1376.4125
1376.79254	1304.0125
1380.26186	1271.6125
1383.72883	1252.4125
1387.19347	1230.7125
1390.65578	1223.3125
1394.11575	1216.3125
1397.57339	1202.7125
1401.0287	1186.4125
1404.48168	1180.4125
1407.93234	1166.9125
1411.38068	1159.1125
1414.82669	1159.2125
1418.27039	1149.2125
1421.71177	1135.1125
1425.15083	1130.5125
1428.58758	1097.5125
1432.02203	1087.0125
1435.45416	1076.9125
1438.88399	1061.7125
1442.31151	1036.6125
1445.73673	1024.5125
1449.15965	1029.0125
1452.58027	1019.5125
1455.9986	1015.1125
1459.41463	1009.1125
1462.82837	1005.5125
1466.23982	1008.5125
1469.64898	1014.0125
1473.05586	1014.9125
1476.46045	1025.7125
1479.86276	1022.4125
1483.26279	1025.5125
1486.66054	1034.4125
1490.05602	1039.2125
1493.44922	1060.9125
1496.84016	1093.6125
1500.22882	1141.9125
1503.61521	1214.7125
1506.99934	1298.2125
1510.38121	1367.0125
1513.76081	1373.3125
1517.13816	1315.5125
1520.51324	1225.8125
1523.88607	1133.1125
1527.25665	1069.9125
1530.62498	1039.5125
1533.99105	1030.1125
1537.35488	1017.8125
1540.71647	1012.4125
1544.07581	1014.1125
1547.4329	1008.9125
1550.78776	1018.5125
1554.14038	1021.8125
1557.49077	1020.4125
1560.83892	1032.8125
1564.18484	1039.7125
1567.52853	1056.0125
1570.86999	1077.4125
1574.20922	1080.1125
1577.54624	1088.8125
1580.88103	1070.4125
1584.2136	1040.8125
1587.54395	1007.4125
1590.87208	988.0125
1594.19801	973.7125
1597.52172	971.0125
1600.84321	971.8125
1604.16251	961.4125
1607.47959	946.6125
1610.79447	940.8125
1614.10715	928.2125
1617.41763	916.4125
1620.7259	908.1125
1624.03199	906.9125
1627.33587	901.5125
1630.63757	892.4125
1633.93707	907.5125
1637.23439	912.7125
1640.52951	926.3125
1643.82246	961.1125
1647.11321	997.5125
1650.40179	1036.9125
1653.68819	1036.2125
1656.97241	992.9125
1660.25446	932.1125
1663.53433	887.3125
1666.81203	861.5125
1670.08756	844.5125
1673.36092	825.0125
1676.63211	822.5125
1679.90115	819.1125
1683.16801	809.7125
1686.43272	806.5125
1689.69527	796.4125
1692.95567	800.8125
1696.2139	789.7125
1699.46999	780.2125
1702.72392	770.6125
1705.97571	762.6125
1709.22535	749.5125
1712.47284	748.4125
1715.71819	733.1125
1718.96139	724.1125
1722.20246	711.1125
1725.44139	708.3125
1728.67818	694.6125
1731.91284	692.3125
1735.14537	690.0125
1738.37576	685.0125
1741.60403	685.5125
1744.83017	661.1125
1748.05418	663.0125
1751.27607	656.3125
1754.49584	655.6125
1757.71349	656.4125
1760.92903	652.0125
1764.14244	646.5125
1767.35375	647.8125
1770.56294	643.1125
1773.77002	642.3125
1776.97499	639.5125
1780.17785	633.3125
1783.37861	630.0125
1786.57727	635.1125
1789.77382	623.6125
1792.96828	629.9125
1796.16064	631.9125
1799.3509	622.0125
1802.53907	620.2125
1805.72514	617.0125
1808.90913	618.7125
1812.09102	604.6125
1815.27083	608.6125
1818.44856	610.8125
1821.6242	602.4125
1824.79776	602.7125
1827.96924	595.6125
1831.13864	595.4125
1834.30597	600.5125
1837.47122	593.0125
1840.6344	582.6125
1843.7955	588.5125
1846.95454	590.8125
1850.11151	589.8125
1853.26642	582.1125
1856.41926	585.2125
1859.57004	590.5125
1862.71876	585.5125
1865.86542	585.2125
1869.01003	581.1125
1872.15258	576.1125
1875.29308	576.4125
1878.43152	573.6125
1881.56792	574.0125
1884.70227	569.7125
1887.83457	569.3125
1890.96482	574.3125
1894.09304	561.9125
1897.21921	561.1125
1900.34335	565.3125
1903.46544	561.9125
1906.58551	551.4125
1909.70353	563.0125
1912.81953	559.2125
1915.93349	555.5125
1919.04543	559.2125
1922.15534	551.6125
1925.26322	548.5125
1928.36908	551.7125
1931.47292	544.9125
1934.57473	551.0125
1937.67453	546.2125
1940.77232	542.7125
1943.86808	539.3125
1946.96184	532.6125
1950.05358	540.2125
1953.14331	531.5125
1956.23103	521.9125
1959.31675	531.6125
1962.40046	526.1125
1965.48217	530.8125
1968.56188	523.0125
1971.63959	518.7125
1974.7153	518.6125
1977.78901	520.4125
1980.86073	512.8125
1983.93046	506.1125
1986.99819	511.6125
1990.06394	505.9125
1993.1277	505.1125
1996.18947	503.3125
1999.24925	503.6125
2002.30706	493.4125
2005.36288	498.8125
2008.41672	498.0125
2011.46859	495.7125
2014.51848	492.6125
2017.56639	489.0125
2020.61233	487.9125
2023.6563	485.8125
2026.6983	482.4125
2029.73833	478.0125
2032.7764	484.3125
2035.8125	472.1125
2038.84664	475.2125
2041.87881	477.4125
2044.90903	476.6125
2047.93729	470.2125
2050.96359	475.7125
2053.98794	467.7125
2057.01034	468.6125
2060.03078	469.3125
2063.04927	470.4125
2066.06582	470.8125
2069.08042	474.9125
2072.09307	469.4125
2075.10378	466.6125
2078.11255	469.4125
2081.11938	472.4125
2084.12426	468.2125
2087.12722	469.4125
2090.12824	466.8125
2093.12732	467.0125
2096.12447	470.4125
2099.11969	468.1125
2102.11299	470.9125
2105.10435	467.3125
2108.09379	473.1125
2111.08131	468.5125
2114.0669	467.6125
2117.05057	472.0125
2120.03233	466.0125
2123.01216	468.5125
2125.99008	475.7125
2128.96609	473.3125
2131.94018	472.2125
2134.91236	477.0125
2137.88263	482.4125
2140.851	475.9125
2143.81746	477.2125
2146.78201	475.7125
2149.74466	478.5125
2152.7054	477.3125
2155.66425	478.7125
2158.6212	481.3125
2161.57625	484.5125
2164.52941	489.9125
2167.48067	496.9125
2170.43004	490.7125
2173.37752	500.1125
2176.32311	500.7125
2179.26681	498.8125
2182.20863	491.1125
2185.14856	491.7125
2188.08661	488.8125
2191.02278	476.2125
2193.95707	474.9125
2196.88948	466.6125
2199.82001	457.4125
2202.74867	451.7125
2205.67545	443.6125
2208.60037	450.1125
2211.52341	442.8125
2214.44458	437.6125
2217.36388	426.6125
2220.28132	436.2125
2223.1969	429.1125
2226.11061	429.4125
2229.02246	428.5125
2231.93245	427.0125
2234.84058	427.3125
2237.74686	421.7125
2240.65128	423.6125
2243.55385	418.9125
2246.45456	415.1125
2249.35343	417.3125
2252.25044	415.8125
2255.14561	417.0125
2258.03893	417.0125
2260.93041	414.2125
2263.82004	413.5125
2266.70783	414.9125
2269.59378	412.0125
2272.4779	412.3125
2275.36017	406.0125
2278.24061	408.3125
2281.11922	405.9125
2283.996	402.1125
2286.87094	402.2125
2289.74405	400.1125
2292.61534	400.9125
2295.4848	401.5125
2298.35243	396.3125
2301.21824	397.1125
2304.08223	393.5125
2306.94439	395.2125
2309.80474	397.3125
2312.66327	389.8125
2315.51999	393.6125
2318.37489	390.0125
2321.22797	391.2125
2324.07925	389.8125
2326.92871	387.3125
2329.77637	390.6125
2332.62222	390.7125
2335.46626	387.5125
2338.3085	386.8125
2341.14893	382.7125
2343.98756	377.6125
2346.8244	374.7125
2349.65943	373.5125
2352.49267	378.9125
2355.32411	377.2125
2358.15376	378.7125
2360.98161	373.9125
2363.80768	370.0125
2366.63195	373.3125
2369.45444	372.7125
2372.27514	371.9125
2375.09405	377.8125
2377.91118	373.7125
2380.72652	360.8125
2383.54009	367.6125
2386.35187	371.9125
2389.16188	363.9125
2391.97011	369.1125
2394.77657	365.2125
2397.58125	362.4125
2400.38416	361.9125
2403.18529	361.2125
2405.98466	358.3125
2408.78226	352.9125
2411.57809	355.0125
2414.37216	360.1125
2417.16446	359.8125
2419.955	362.8125
2422.74378	356.9125
2425.5308	345.2125
2428.31606	354.1125
2431.09956	357.1125
2433.88131	357.5125
2436.6613	345.3125
2439.43954	348.4125
2442.21603	351.4125
2444.99077	349.6125
2447.76377	350.8125
2450.53501	347.3125
2453.30451	344.7125
2456.07226	344.8125
2458.83827	348.0125
2461.60254	344.3125
2464.36507	344.8125
2467.12586	343.0125
2469.88492	340.6125
2472.64224	341.3125
2475.39782	337.9125
2478.15167	337.1125
2480.90379	339.2125
2483.65417	337.0125
2486.40283	336.3125
2489.14976	335.6125
2491.89497	333.6125
2494.63845	337.1125
2497.3802	340.4125
2500.12024	334.6125
2502.85855	333.5125
2505.59514	333.0125
2508.33002	331.6125
2511.06318	333.0125
2513.79462	332.7125
2516.52435	326.4125
2519.25237	329.0125
2521.97867	329.1125
2524.70327	326.1125
2527.42616	327.5125
2530.14734	323.3125
2532.86681	328.3125
2535.58458	326.3125
2538.30065	326.1125
2541.01501	321.2125
2543.72768	317.1125
2546.43864	322.0125
2549.14791	318.5125
2551.85548	324.1125
2554.56136	312.7125
2557.26554	323.1125
2559.96803	321.5125
2562.66883	318.6125
2565.36794	312.9125
2568.06536	311.0125
2570.7611	315.0125
2573.45514	312.9125
2576.14751	310.9125
2578.83819	312.9125
2581.52719	310.1125
2584.21451	310.6125
2586.90015	312.1125
2589.58411	306.7125
2592.2664	306.6125
2594.94701	307.6125
2597.62594	308.8125
2600.30321	302.4125
2602.9788	301.7125
2605.65273	301.3125
2608.32498	304.2125
2610.99557	302.0125
2613.66449	298.4125
2616.33175	299.2125
2618.99734	301.7125
2621.66128	299.9125
2624.32355	298.2125
2626.98416	296.3125
2629.64311	293.7125
2632.30041	298.9125
2634.95605	295.8125
2637.61004	300.2125
2640.26238	294.1125
2642.91306	292.0125
2645.56209	292.1125
2648.20948	290.0125
2650.85521	296.6125
2653.4993	290.9125
2656.14175	294.2125
2658.78255	293.0125
2661.42171	291.4125
2664.05923	293.8125
2666.6951	291.2125
2669.32934	296.3125
2671.96194	290.7125
2674.59291	289.9125
2677.22224	292.2125
2679.84993	291.8125
2682.476	295.2125
2685.10043	286.3125
2687.72324	285.7125
2690.34441	292.3125
2692.96396	292.8125
2695.58188	285.9125
2698.19818	288.3125
2700.81285	293.4125
2703.4259	291.2125
2706.03733	286.1125
2708.64714	292.2125
2711.25533	287.6125
2713.86191	289.6125
2716.46687	288.9125
2719.07021	290.0125
2721.67194	292.8125
2724.27206	290.1125
2726.87057	289.0125
2729.46747	289.4125
2732.06276	289.4125
2734.65644	295.0125
2737.24852	289.0125
2739.83899	287.9125
2742.42786	290.6125
2745.01513	286.7125
2747.60079	286.6125
2750.18486	290.1125
2752.76733	289.8125
2755.3482	283.9125
2757.92747	287.6125
2760.50515	286.5125
2763.08123	281.2125
2765.65573	282.8125
2768.22863	289.0125
2770.79994	278.5125
2773.36967	281.4125
2775.9378	287.1125
2778.50435	283.2125
2781.06932	282.2125
2783.6327	280.0125
2786.1945	277.7125
2788.75471	281.1125
2791.31335	281.8125
2793.87041	280.2125
2796.42589	279.6125
2798.97979	277.9125
2801.53212	280.0125
2804.08288	280.0125
2806.63206	274.4125
2809.17967	282.5125
2811.72571	276.1125
2814.27018	274.2125
2816.81308	276.7125
2819.35442	273.1125
2821.89419	276.8125
2824.43239	274.6125
2826.96904	274.6125
2829.50412	269.7125
2832.03763	269.1125
2834.56959	271.7125
2837.1	269.9125
2839.62884	262.9125
2842.15613	272.2125
2844.68186	273.9125
2847.20604	270.7125
2849.72867	271.4125
2852.24974	272.3125
2854.76927	267.2125
2857.28724	275.0125
2859.80367	274.1125
2862.31855	270.4125
2864.83189	273.3125
2867.34368	266.1125
2869.85393	269.5125
2872.36264	273.3125
2874.8698	270.4125
2877.37543	274.7125
2879.87952	268.2125
2882.38207	267.4125
2884.88308	270.5125
2887.38256	278.7125
2889.88051	273.0125
2892.37692	274.0125
2894.8718	273.7125
2897.36515	278.3125
2899.85698	278.1125
2902.34727	282.6125
2904.83604	286.4125
2907.32328	288.2125
2909.809	285.5125
2912.29319	287.9125
2914.77587	291.8125
2917.25702	293.0125
2919.73665	290.4125
2922.21476	292.2125
2924.69136	297.3125
2927.16644	295.5125
2929.64	293.6125
2932.11205	296.9125
2934.58258	297.8125
2937.05161	293.0125
2939.51912	298.1125
2941.98513	296.1125
2944.44962	298.5125
2946.91261	297.9125
2949.37409	291.7125
2951.83407	290.2125
2954.29254	290.3125
2956.74951	290.6125
2959.20498	288.7125
2961.65895	293.2125
2964.11142	292.8125
2966.56239	289.7125
2969.01186	290.1125
2971.45984	291.9125
2973.90632	290.3125
2976.35131	290.4125
2978.7948	291.0125
2981.23681	294.7125
2983.67732	291.5125
2986.11635	296.3125
2988.55388	295.3125
2990.98993	296.0125
2993.4245	298.8125
2995.85758	286.6125
2998.28917	298.8125
3000.71928	295.7125
3003.14791	297.3125
3005.57506	297.0125
3008.00073	303.3125
3010.42493	302.5125
3012.84764	302.4125
3015.26888	304.7125
3017.68865	303.7125
3020.10694	305.7125
3022.52376	308.0125
3024.9391	308.2125
3027.35298	313.1125
3029.76539	311.1125
3032.17632	319.8125
3034.5858	309.9125
3036.9938	321.6125
3039.40034	323.4125
3041.80542	322.5125
3044.20903	325.7125
3046.61118	331.8125
3049.01187	333.9125
3051.4111	332.2125
3053.80888	335.6125
3056.20519	334.3125
3058.60005	340.4125
3060.99345	343.6125
3063.3854	340.2125
3065.7759	348.1125
3068.16494	352.0125
3070.55254	353.8125
3072.93868	360.6125
3075.32338	357.9125
3077.70662	362.8125
3080.08842	356.8125
3082.46878	372.2125
3084.84769	370.3125
3087.22515	376.6125
3089.60118	376.4125
3091.97576	384.4125
3094.3489	390.7125
3096.72061	391.8125
3099.09087	398.5125
3101.4597	403.4125
3103.82709	405.6125
3106.19305	409.4125
3108.55757	413.8125
3110.92066	417.6125
3113.28232	424.4125
3115.64255	429.4125
3118.00134	433.0125
3120.35871	439.0125
3122.71466	442.7125
3125.06917	442.6125
3127.42226	452.8125
3129.77393	458.9125
3132.12417	461.9125
3134.47299	473.0125
3136.82039	475.6125
3139.16636	484.0125
3141.51092	480.5125
3143.85406	485.0125
3146.19579	495.4125
3148.53609	500.3125
3150.87499	511.2125
3153.21246	514.0125
3155.54853	525.7125
3157.88318	523.6125
3160.21642	539.0125
3162.54826	544.6125
3164.87868	541.0125
3167.2077	551.1125
3169.5353	557.5125
3171.86151	564.4125
3174.18631	573.1125
3176.5097	578.2125
3178.83169	580.8125
3181.15228	587.0125
3183.47147	595.6125
3185.78926	598.2125
3188.10565	602.2125
3190.42065	608.5125
3192.73424	615.3125
3195.04645	606.7125
3197.35725	612.3125
3199.66667	623.8125
3201.97469	628.4125
3204.28132	632.6125
3206.58656	639.7125
3208.8904	646.6125
3211.19287	643.2125
3213.49394	657.6125
3215.79363	654.5125
3218.09193	655.8125
3220.38884	661.2125
3222.68438	663.7125
3224.97853	669.1125
3227.2713	669.0125
3229.56269	670.8125
3231.8527	677.5125
3234.14133	673.9125
3236.42858	681.1125
3238.71446	672.2125
3240.99896	682.8125
3243.28209	679.7125
3245.56384	678.4125
3247.84423	673.0125
3250.12324	677.7125
3252.40088	680.0125
3254.67715	683.8125
3256.95205	676.2125
3259.22558	688.3125
3261.49775	682.9125
3263.76855	684.0125
3266.03799	683.7125
3268.30606	690.3125
3270.57277	682.6125
3272.83812	682.7125
3275.10211	681.9125
3277.36474	682.8125
3279.62601	685.3125
3281.88593	684.6125
3284.14448	686.2125
3286.40168	689.7125
3288.65753	684.3125
3290.91202	685.4125
3293.16516	686.5125
3295.41695	680.0125
3297.66738	685.0125
3299.91647	675.5125
3302.16421	684.8125
3304.4106	673.2125
3306.65564	671.1125
3308.89933	670.5125
3311.14169	668.8125
3313.38269	662.1125
3315.62236	659.8125
3317.86068	650.7125
3320.09766	654.1125
3322.3333	648.7125
3324.5676	645.9125
3326.80056	645.9125
3329.03219	637.9125
3331.26248	-0.5875
3333.49143	0.7125
3335.71905	0.8125
