Data from AgNP_FTO_APTES_UA_100uM_CRN_1uM_R6G_10uM_NaF_0.1M_Addition_RamanShift__1__11-49-20-154.txt Node

Date: Thu Mar 24 11:49:20 GMT 2022
User: TCL
Spectrometer: QEP01345
Trigger mode: 4
Integration Time (sec): 7.000000E0
Scans to average: 10
Electric dark correction enabled: true
Nonlinearity correction enabled: false
Boxcar width: 0
XAxis mode: Raman Shifts
Number of Pixels in Spectrum: 1044
>>>>>Begin Spectral Data<<<<<
46.04893	-2.425
50.45542	-0.325
54.85868	-0.525
59.25871	-0.125
63.6555	48.575
68.04907	53.475
72.43941	50.575
76.82654	51.075
81.21044	55.775
85.59113	61.175
89.96862	62.075
94.34289	61.175
98.71396	66.275
103.08183	63.975
107.4465	65.975
111.80798	67.575
116.16626	71.475
120.52136	71.175
124.87327	76.675
129.222	79.475
133.56755	86.675
137.90993	90.275
142.24913	105.075
146.58517	116.275
150.91804	137.475
155.24774	167.975
159.57429	209.475
163.89768	270.275
168.21792	361.775
172.53501	492.775
176.84895	690.675
181.15975	975.375
185.46741	1367.075
189.77193	1889.475
194.07331	2527.875
198.37157	3259.275
202.6667	4032.775
206.9587	4798.175
211.24758	5581.375
215.53334	6387.575
219.81599	7253.475
224.09553	8224.975
228.37195	9285.975
232.64527	10484.975
236.91549	11697.175
241.18261	12859.475
245.44663	13831.975
249.70755	14627.175
253.96539	15231.475
258.22014	15740.775
262.4718	16142.875
266.72039	16406.075
270.96589	16534.875
275.20832	16480.175
279.44768	16281.575
283.68397	16100.875
287.91719	15935.575
292.14735	15819.175
296.37445	15857.875
300.59849	16078.075
304.81948	16405.775
309.03742	16689.375
313.25231	16800.875
317.46415	16684.675
321.67296	16294.075
325.87872	15963.875
330.08145	15791.175
334.28114	15762.875
338.47781	15856.775
342.67145	16081.575
346.86207	16439.375
351.04966	16885.775
355.23424	17337.475
359.4158	17632.575
363.59435	17757.575
367.76989	17790.675
371.94243	17716.175
376.11196	17720.675
380.27849	17754.575
384.44203	17794.975
388.60257	17915.875
392.76012	18016.975
396.91468	18167.875
401.06626	18422.475
405.21485	18590.875
409.36047	18299.275
413.50311	17764.075
417.64277	17383.775
421.77947	17267.175
425.9132	17312.275
430.04396	17413.975
434.17176	17567.775
438.2966	17865.375
442.41849	18481.875
446.53742	19417.775
450.6534	20319.575
454.76644	20785.075
458.87653	20675.575
462.98368	20267.275
467.08789	19805.575
471.18916	19262.875
475.2875	18714.675
479.38291	18233.475
483.4754	17885.375
487.56496	17589.175
491.6516	17226.975
495.73531	16978.775
499.81612	16871.675
503.89401	16956.975
507.96899	17052.975
512.04106	17006.975
516.11023	16899.475
520.1765	16805.975
524.23987	16855.475
528.30034	16968.775
532.35792	16935.375
536.41261	16573.275
540.46441	16163.875
544.51333	15891.175
548.55936	15988.375
552.60252	16421.875
556.64279	17174.175
560.6802	17809.975
564.71473	18109.475
568.7464	18564.675
572.7752	19358.475
576.80114	20039.575
580.82422	20498.275
584.84444	21441.175
588.86181	23394.575
592.87633	26086.375
596.888	27437.475
600.89682	25573.875
604.9028	23639.175
608.90594	24972.375
612.90624	27679.075
616.90371	25786.075
620.89834	19981.075
624.89015	17171.475
628.87913	16724.475
632.86528	16942.575
636.84862	16988.375
640.82913	16491.275
644.80683	15772.275
648.78172	15312.575
652.75379	15315.975
656.72306	15719.175
660.68952	16265.475
664.65319	16049.475
668.61405	15474.275
672.57211	15310.075
676.52738	15441.375
680.47986	15377.675
684.42955	15178.875
688.37646	15008.275
692.32058	15117.375
696.26192	15430.075
700.20048	15824.575
704.13626	16074.475
708.06928	16089.675
711.99952	16032.875
715.927	16073.175
719.85171	16141.075
723.77365	16070.075
727.69284	15746.075
731.60928	15512.575
735.52295	15577.575
739.43388	15698.975
743.34206	15844.775
747.24749	15978.175
751.15017	16129.175
755.05012	16470.975
758.94733	17120.975
762.8418	18533.175
766.73354	20981.775
770.62254	23257.175
774.50882	23736.375
778.39237	22343.375
782.27321	20130.675
786.15132	18095.975
790.02671	16767.575
793.89938	16039.275
797.76935	15651.675
801.6366	15473.975
805.50115	15327.275
809.36299	15206.975
813.22213	15075.475
817.07857	15001.275
820.93231	14939.075
824.78336	14863.875
828.63172	14839.575
832.47738	14841.575
836.32036	14830.875
840.16066	14874.675
843.99827	14822.575
847.8332	14815.975
851.66546	14859.875
855.49504	14898.975
859.32195	14850.075
863.1462	14776.175
866.96777	14675.375
870.78668	14659.575
874.60293	14673.575
878.41652	14749.575
882.22745	14858.475
886.03573	14962.775
889.84136	14975.975
893.64433	14869.075
897.44466	14809.675
901.24235	14778.575
905.0374	14635.675
908.8298	14576.475
912.61957	14520.575
916.40671	14647.675
920.19121	14890.775
923.97308	15232.875
927.75233	15431.275
931.52895	15288.375
935.30295	14879.375
939.07433	14409.275
942.84309	14088.275
946.60924	13928.775
950.37278	13879.275
954.13371	13899.775
957.89203	13920.775
961.64774	13903.275
965.40086	13911.075
969.15137	13941.675
972.89929	13874.075
976.64461	13872.675
980.38733	13820.275
984.12747	13867.975
987.86502	13959.975
991.59999	14110.675
995.33237	14328.675
999.06217	14722.875
1002.78939	15352.275
1006.51404	15973.975
1010.23611	16481.075
1013.95561	16821.875
1017.67255	16821.375
1021.38692	16370.975
1025.09872	15698.175
1028.80796	15222.675
1032.51465	15082.475
1036.21877	15173.475
1039.92035	15291.775
1043.61937	15331.075
1047.31584	15357.575
1051.00976	15338.875
1054.70114	15311.075
1058.38998	15350.275
1062.07627	15439.175
1065.76003	15593.975
1069.44126	15891.775
1073.11995	16316.875
1076.79611	16707.875
1080.46974	17009.875
1084.14085	17383.775
1087.80943	17808.175
1091.47549	18037.275
1095.13903	17916.175
1098.80005	17386.875
1102.45857	16785.275
1106.11456	16468.375
1109.76805	16418.875
1113.41903	16615.275
1117.06751	16919.975
1120.71348	17374.675
1124.35696	17814.375
1127.99793	18202.275
1131.63641	18271.075
1135.2724	17985.775
1138.90589	17733.175
1142.5369	17684.275
1146.16542	17814.175
1149.79145	18102.575
1153.415	18329.275
1157.03607	18578.775
1160.65467	19049.275
1164.27079	19971.575
1167.88443	21391.475
1171.49561	23422.375
1175.10432	26371.875
1178.71056	30058.875
1182.31434	33189.975
1185.91565	34043.075
1189.51451	32720.775
1193.11091	30706.275
1196.70485	28612.275
1200.29634	26761.175
1203.88538	25268.675
1207.47197	24162.375
1211.05612	23381.875
1214.63782	22878.275
1218.21708	22714.475
1221.79391	22888.275
1225.36829	23271.975
1228.94024	23270.675
1232.50976	22636.175
1236.07685	21610.575
1239.6415	20831.575
1243.20374	20524.475
1246.76355	20552.175
1250.32093	20797.175
1253.8759	21241.675
1257.42845	21976.375
1260.97859	22975.975
1264.52631	24013.875
1268.07163	25044.675
1271.61453	26022.575
1275.15503	26895.375
1278.69312	27798.375
1282.22882	28985.175
1285.76211	30755.275
1289.29301	32902.775
1292.82151	35165.875
1296.34761	37689.475
1299.87133	40674.475
1303.39266	43940.875
1306.9116	47396.675
1310.42815	50483.675
1313.94233	52151.175
1317.45412	50913.775
1320.96354	48059.775
1324.47058	44888.475
1327.97525	42269.575
1331.47754	40301.975
1334.97747	39003.075
1338.47502	38152.075
1341.97022	37614.475
1345.46305	37403.075
1348.95352	37840.375
1352.44163	39469.775
1355.92738	42696.275
1359.41078	47410.675
1362.89183	51670.375
1366.37053	51757.275
1369.84688	46072.875
1373.32088	38713.075
1376.79254	33955.375
1380.26186	32188.775
1383.72883	31604.475
1387.19347	31033.575
1390.65578	30368.375
1394.11575	30066.575
1397.57339	30297.275
1401.0287	30682.275
1404.48168	30737.875
1407.93234	30382.275
1411.38068	29634.475
1414.82669	28665.675
1418.27039	27671.575
1421.71177	26585.175
1425.15083	25665.475
1428.58758	25262.375
1432.02203	25669.975
1435.45416	26380.875
1438.88399	27084.075
1442.31151	27378.975
1445.73673	27559.775
1449.15965	27756.975
1452.58027	27603.375
1455.9986	27362.175
1459.41463	27305.675
1462.82837	27859.375
1466.23982	28772.275
1469.64898	29670.475
1473.05586	30351.175
1476.46045	30824.575
1479.86276	31059.675
1483.26279	31217.475
1486.66054	31579.175
1490.05602	32320.975
1493.44922	33321.675
1496.84016	34182.675
1500.22882	35185.375
1503.61521	36545.975
1506.99934	38162.175
1510.38121	39344.675
1513.76081	39292.575
1517.13816	37627.175
1520.51324	35207.775
1523.88607	33386.075
1527.25665	32656.975
1530.62498	32438.375
1533.99105	32141.775
1537.35488	31427.675
1540.71647	30300.775
1544.07581	28931.875
1547.4329	27692.775
1550.78776	26653.275
1554.14038	25900.275
1557.49077	25588.375
1560.83892	25661.075
1564.18484	26004.675
1567.52853	26590.075
1570.86999	27305.575
1574.20922	28010.175
1577.54624	28322.375
1580.88103	27816.075
1584.2136	27311.675
1587.54395	27843.575
1590.87208	29655.075
1594.19801	32391.875
1597.52172	35403.475
1600.84321	36485.475
1604.16251	34553.575
1607.47959	30804.075
1610.79447	26735.075
1614.10715	23387.275
1617.41763	21067.575
1620.7259	19731.275
1624.03199	19131.975
1627.33587	19312.475
1630.63757	20215.875
1633.93707	22131.175
1637.23439	25641.775
1640.52951	31280.075
1643.82246	38545.975
1647.11321	44726.275
1650.40179	46011.875
1653.68819	41269.975
1656.97241	33466.875
1660.25446	26303.375
1663.53433	21364.075
1666.81203	18465.975
1670.08756	16828.275
1673.36092	15855.275
1676.63211	15214.575
1679.90115	14783.975
1683.16801	14482.575
1686.43272	14240.875
1689.69527	14041.275
1692.95567	13909.675
1696.2139	13815.675
1699.46999	13753.675
1702.72392	13657.575
1705.97571	13642.675
1709.22535	13574.275
1712.47284	13547.975
1715.71819	13541.375
1718.96139	13493.375
1722.20246	13433.075
1725.44139	13369.375
1728.67818	13262.875
1731.91284	13103.575
1735.14537	13010.075
1738.37576	12912.875
1741.60403	12839.575
1744.83017	12781.875
1748.05418	12761.275
1751.27607	12671.275
1754.49584	12644.375
1757.71349	12635.775
1760.92903	12613.575
1764.14244	12591.675
1767.35375	12573.975
1770.56294	12557.575
1773.77002	12523.275
1776.97499	12480.075
1780.17785	12467.875
1783.37861	12452.675
1786.57727	12409.075
1789.77382	12378.075
1792.96828	12321.675
1796.16064	12316.775
1799.3509	12300.175
1802.53907	12249.775
1805.72514	12174.475
1808.90913	12162.475
1812.09102	12126.275
1815.27083	12116.175
1818.44856	12087.675
1821.6242	12071.175
1824.79776	12020.975
1827.96924	12034.375
1831.13864	12002.175
1834.30597	12022.175
1837.47122	12006.475
1840.6344	11976.775
1843.7955	11992.175
1846.95454	11960.375
1850.11151	11973.675
1853.26642	11960.975
1856.41926	11976.975
1859.57004	11964.675
1862.71876	11929.975
1865.86542	11925.775
1869.01003	11931.075
1872.15258	11944.675
1875.29308	11943.275
1878.43152	11914.775
1881.56792	11924.675
1884.70227	11886.375
1887.83457	11885.575
1890.96482	11906.075
1894.09304	11853.775
1897.21921	11865.275
1900.34335	11883.875
1903.46544	11878.475
1906.58551	11868.275
1909.70353	11852.175
1912.81953	11819.975
1915.93349	11806.075
1919.04543	11776.575
1922.15534	11748.875
1925.26322	11681.275
1928.36908	11647.575
1931.47292	11635.575
1934.57473	11584.575
1937.67453	11543.775
1940.77232	11530.575
1943.86808	11502.975
1946.96184	11477.675
1950.05358	11455.475
1953.14331	11407.975
1956.23103	11410.675
1959.31675	11360.575
1962.40046	11336.575
1965.48217	11311.575
1968.56188	11271.075
1971.63959	11217.575
1974.7153	11195.375
1977.78901	11155.475
1980.86073	11100.075
1983.93046	11072.475
1986.99819	11027.275
1990.06394	10999.975
1993.1277	10953.975
1996.18947	10916.175
1999.24925	10860.275
2002.30706	10840.775
2005.36288	10807.175
2008.41672	10799.875
2011.46859	10755.675
2014.51848	10700.075
2017.56639	10704.375
2020.61233	10664.575
2023.6563	10621.975
2026.6983	10603.775
2029.73833	10582.075
2032.7764	10557.975
2035.8125	10532.475
2038.84664	10498.175
2041.87881	10482.375
2044.90903	10453.475
2047.93729	10447.175
2050.96359	10432.575
2053.98794	10420.675
2057.01034	10411.475
2060.03078	10368.675
2063.04927	10372.775
2066.06582	10354.475
2069.08042	10348.175
2072.09307	10363.075
2075.10378	10342.675
2078.11255	10365.875
2081.11938	10359.175
2084.12426	10377.375
2087.12722	10376.875
2090.12824	10402.875
2093.12732	10380.375
2096.12447	10398.475
2099.11969	10388.475
2102.11299	10404.375
2105.10435	10406.075
2108.09379	10408.575
2111.08131	10394.275
2114.0669	10401.575
2117.05057	10378.575
2120.03233	10390.375
2123.01216	10399.075
2125.99008	10413.275
2128.96609	10410.375
2131.94018	10397.075
2134.91236	10410.975
2137.88263	10399.775
2140.851	10366.475
2143.81746	10392.975
2146.78201	10386.975
2149.74466	10391.675
2152.7054	10359.075
2155.66425	10327.675
2158.6212	10348.075
2161.57625	10331.975
2164.52941	10296.375
2167.48067	10289.175
2170.43004	10299.775
2173.37752	10274.675
2176.32311	10294.475
2179.26681	10290.475
2182.20863	10262.775
2185.14856	10283.775
2188.08661	10256.875
2191.02278	10266.675
2193.95707	10250.375
2196.88948	10224.775
2199.82001	10213.675
2202.74867	10183.275
2205.67545	10192.575
2208.60037	10150.575
2211.52341	10160.175
2214.44458	10151.575
2217.36388	10131.175
2220.28132	10070.475
2223.1969	10070.775
2226.11061	10067.175
2229.02246	10049.975
2231.93245	10078.775
2234.84058	10059.875
2237.74686	10032.975
2240.65128	10037.575
2243.55385	10038.875
2246.45456	10020.975
2249.35343	9972.375
2252.25044	9977.875
2255.14561	9942.775
2258.03893	9926.175
2260.93041	9913.075
2263.82004	9866.075
2266.70783	9832.975
2269.59378	9817.075
2272.4779	9790.275
2275.36017	9789.575
2278.24061	9744.675
2281.11922	9732.575
2283.996	9716.075
2286.87094	9719.375
2289.74405	9676.275
2292.61534	9665.475
2295.4848	9654.475
2298.35243	9654.875
2301.21824	9658.175
2304.08223	9645.475
2306.94439	9624.375
2309.80474	9629.275
2312.66327	9647.375
2315.51999	9617.475
2318.37489	9632.875
2321.22797	9592.975
2324.07925	9590.775
2326.92871	9587.675
2329.77637	9585.675
2332.62222	9539.175
2335.46626	9536.275
2338.3085	9555.875
2341.14893	9569.275
2343.98756	9556.375
2346.8244	9576.975
2349.65943	9584.475
2352.49267	9561.175
2355.32411	9554.075
2358.15376	9562.875
2360.98161	9561.875
2363.80768	9577.975
2366.63195	9574.875
2369.45444	9573.875
2372.27514	9531.475
2375.09405	9527.475
2377.91118	9543.875
2380.72652	9517.075
2383.54009	9480.175
2386.35187	9455.775
2389.16188	9424.675
2391.97011	9394.875
2394.77657	9380.675
2397.58125	9377.175
2400.38416	9345.175
2403.18529	9341.975
2405.98466	9325.275
2408.78226	9303.275
2411.57809	9310.875
2414.37216	9285.275
2417.16446	9281.875
2419.955	9269.575
2422.74378	9273.175
2425.5308	9269.075
2428.31606	9227.975
2431.09956	9245.975
2433.88131	9221.375
2436.6613	9235.075
2439.43954	9232.975
2442.21603	9236.275
2444.99077	9242.075
2447.76377	9254.075
2450.53501	9255.175
2453.30451	9272.375
2456.07226	9272.975
2458.83827	9256.375
2461.60254	9275.075
2464.36507	9251.375
2467.12586	9248.975
2469.88492	9254.775
2472.64224	9249.775
2475.39782	9265.275
2478.15167	9273.475
2480.90379	9273.975
2483.65417	9263.775
2486.40283	9281.875
2489.14976	9286.475
2491.89497	9284.575
2494.63845	9310.975
2497.3802	9312.175
2500.12024	9308.375
2502.85855	9290.675
2505.59514	9296.675
2508.33002	9255.875
2511.06318	9265.675
2513.79462	9238.475
2516.52435	9202.375
2519.25237	9202.175
2521.97867	9184.675
2524.70327	9167.575
2527.42616	9169.675
2530.14734	9190.175
2532.86681	9158.575
2535.58458	9168.575
2538.30065	9159.775
2541.01501	9159.875
2543.72768	9152.475
2546.43864	9137.975
2549.14791	9144.475
2551.85548	9137.575
2554.56136	9130.175
2557.26554	9137.175
2559.96803	9123.975
2562.66883	9125.275
2565.36794	9127.575
2568.06536	9099.475
2570.7611	9123.275
2573.45514	9091.875
2576.14751	9092.075
2578.83819	9094.775
2581.52719	9100.475
2584.21451	9095.675
2586.90015	9059.675
2589.58411	9052.775
2592.2664	9029.775
2594.94701	9016.575
2597.62594	9007.475
2600.30321	8998.175
2602.9788	9005.375
2605.65273	8996.375
2608.32498	9016.775
2610.99557	8989.575
2613.66449	9014.275
2616.33175	9022.275
2618.99734	9004.275
2621.66128	9032.375
2624.32355	9005.275
2626.98416	9002.975
2629.64311	8992.675
2632.30041	8973.875
2634.95605	8965.375
2637.61004	8963.375
2640.26238	8937.575
2642.91306	8956.275
2645.56209	8943.275
2648.20948	8956.975
2650.85521	8963.675
2653.4993	8980.875
2656.14175	8977.075
2658.78255	9009.675
2661.42171	9005.775
2664.05923	9035.775
2666.6951	9017.075
2669.32934	9040.175
2671.96194	9043.875
2674.59291	9063.475
2677.22224	9018.175
2679.84993	9016.975
2682.476	9017.375
2685.10043	9038.175
2687.72324	9027.875
2690.34441	9021.275
2692.96396	9016.775
2695.58188	9021.375
2698.19818	9025.675
2700.81285	9034.575
2703.4259	9030.575
2706.03733	9020.175
2708.64714	9019.775
2711.25533	9022.375
2713.86191	9028.675
2716.46687	9060.175
2719.07021	9061.475
2721.67194	9065.975
2724.27206	9058.675
2726.87057	9083.475
2729.46747	9055.675
2732.06276	9074.875
2734.65644	9074.175
2737.24852	9052.975
2739.83899	9054.375
2742.42786	9053.975
2745.01513	9046.475
2747.60079	9042.675
2750.18486	9046.475
2752.76733	9039.275
2755.3482	9027.475
2757.92747	9038.575
2760.50515	9036.575
2763.08123	9052.875
2765.65573	9022.175
2768.22863	9019.875
2770.79994	9008.675
2773.36967	9022.575
2775.9378	8992.475
2778.50435	9009.575
2781.06932	8998.775
2783.6327	9014.075
2786.1945	8994.975
2788.75471	8980.975
2791.31335	8960.775
2793.87041	8978.975
2796.42589	8952.975
2798.97979	8969.175
2801.53212	8966.575
2804.08288	8947.575
2806.63206	8926.675
2809.17967	8945.375
2811.72571	8914.275
2814.27018	8899.075
2816.81308	8902.275
2819.35442	8876.775
2821.89419	8872.875
2824.43239	8893.275
2826.96904	8877.875
2829.50412	8882.775
2832.03763	8858.775
2834.56959	8874.475
2837.1	8855.475
2839.62884	8850.375
2842.15613	8852.375
2844.68186	8870.875
2847.20604	8832.775
2849.72867	8858.175
2852.24974	8847.675
2854.76927	8854.875
2857.28724	8841.475
2859.80367	8842.275
2862.31855	8846.775
2864.83189	8840.075
2867.34368	8801.775
2869.85393	8814.775
2872.36264	8830.275
2874.8698	8827.375
2877.37543	8840.875
2879.87952	8831.675
2882.38207	8823.275
2884.88308	8811.275
2887.38256	8848.975
2889.88051	8818.675
2892.37692	8832.675
2894.8718	8832.075
2897.36515	8865.475
2899.85698	8833.275
2902.34727	8860.875
2904.83604	8877.275
2907.32328	8870.675
2909.809	8853.375
2912.29319	8854.675
2914.77587	8843.475
2917.25702	8846.875
2919.73665	8834.475
2922.21476	8843.875
2924.69136	8851.575
2927.16644	8849.375
2929.64	8819.575
2932.11205	8817.175
2934.58258	8774.275
2937.05161	8773.375
2939.51912	8769.775
2941.98513	8789.275
2944.44962	8746.575
2946.91261	8685.575
2949.37409	8736.575
2951.83407	8728.475
2954.29254	8731.975
2956.74951	8706.275
2959.20498	8676.575
2961.65895	8669.675
2964.11142	8636.075
2966.56239	8636.775
2969.01186	8604.775
2971.45984	8575.475
2973.90632	8558.475
2976.35131	8526.075
2978.7948	8517.975
2981.23681	8460.175
2983.67732	8463.675
2986.11635	8419.075
2988.55388	8386.975
2990.98993	8376.275
2993.4245	8358.775
2995.85758	8314.375
2998.28917	8337.775
3000.71928	8325.875
3003.14791	8295.875
3005.57506	8290.775
3008.00073	8280.175
3010.42493	8271.975
3012.84764	8250.375
3015.26888	8263.575
3017.68865	8233.075
3020.10694	8233.775
3022.52376	8170.075
3024.9391	8170.775
3027.35298	8171.175
3029.76539	8130.675
3032.17632	8113.275
3034.5858	8105.175
3036.9938	8110.175
3039.40034	8105.475
3041.80542	8097.875
3044.20903	8068.075
3046.61118	8054.375
3049.01187	8035.375
3051.4111	8029.875
3053.80888	8003.975
3056.20519	7988.275
3058.60005	7980.575
3060.99345	7978.575
3063.3854	7942.875
3065.7759	7925.875
3068.16494	7944.475
3070.55254	7886.575
3072.93868	7867.175
3075.32338	7835.275
3077.70662	7815.075
3080.08842	7811.075
3082.46878	7806.775
3084.84769	7795.175
3087.22515	7789.075
3089.60118	7779.275
3091.97576	7725.375
3094.3489	7732.175
3096.72061	7742.975
3099.09087	7719.775
3101.4597	7703.175
3103.82709	7710.675
3106.19305	7693.075
3108.55757	7653.375
3110.92066	7633.675
3113.28232	7627.375
3115.64255	7611.175
3118.00134	7607.275
3120.35871	7576.775
3122.71466	7567.475
3125.06917	7554.175
3127.42226	7549.775
3129.77393	7549.775
3132.12417	7552.475
3134.47299	7553.075
3136.82039	7536.875
3139.16636	7555.675
3141.51092	7528.675
3143.85406	7545.475
3146.19579	7525.275
3148.53609	7522.975
3150.87499	7526.275
3153.21246	7529.175
3155.54853	7528.675
3157.88318	7503.775
3160.21642	7496.475
3162.54826	7485.775
3164.87868	7439.275
3167.2077	7470.675
3169.5353	7457.075
3171.86151	7470.175
3174.18631	7459.775
3176.5097	7441.175
3178.83169	7438.375
3181.15228	7445.675
3183.47147	7430.375
3185.78926	7410.775
3188.10565	7413.775
3190.42065	7417.575
3192.73424	7432.175
3195.04645	7402.675
3197.35725	7429.775
3199.66667	7421.875
3201.97469	7405.575
3204.28132	7403.275
3206.58656	7412.675
3208.8904	7401.375
3211.19287	7381.175
3213.49394	7391.675
3215.79363	7370.075
3218.09193	7393.175
3220.38884	7365.875
3222.68438	7376.675
3224.97853	7384.275
3227.2713	7358.775
3229.56269	7344.075
3231.8527	7362.575
3234.14133	7358.575
3236.42858	7343.775
3238.71446	7324.575
3240.99896	7325.575
3243.28209	7323.775
3245.56384	7319.775
3247.84423	7312.375
3250.12324	7294.275
3252.40088	7290.975
3254.67715	7258.075
3256.95205	7227.475
3259.22558	7230.575
3261.49775	7224.175
3263.76855	7202.075
3266.03799	7186.675
3268.30606	7178.775
3270.57277	7169.275
3272.83812	7172.775
3275.10211	7144.275
3277.36474	7162.675
3279.62601	7156.075
3281.88593	7154.275
3284.14448	7186.675
3286.40168	7166.775
3288.65753	7150.875
3290.91202	7127.475
3293.16516	7149.375
3295.41695	7134.675
3297.66738	7092.375
3299.91647	7065.475
3302.16421	7019.375
3304.4106	6995.975
3306.65564	6959.375
3308.89933	6904.375
3311.14169	6877.575
3313.38269	6794.375
3315.62236	6762.875
3317.86068	6717.675
3320.09766	6619.675
3322.3333	6567.575
3324.5676	6586.375
3326.80056	6435.075
3329.03219	6420.075
3331.26248	3.675
3333.49143	-0.525
3335.71905	0.675
