Data from AgNP_FTO_APTES_UA_100uM_CRN_1uM_R6G_10uM_NaF_0.1M_Addition_RamanShift__23__12-15-00-183.txt Node

Date: Thu Mar 24 12:15:00 GMT 2022
User: TCL
Spectrometer: QEP01345
Trigger mode: 4
Integration Time (sec): 7.000000E0
Scans to average: 10
Electric dark correction enabled: true
Nonlinearity correction enabled: false
Boxcar width: 0
XAxis mode: Raman Shifts
Number of Pixels in Spectrum: 1044
>>>>>Begin Spectral Data<<<<<
46.04893	-1.5
50.45542	-0.8
54.85868	-1
59.25871	-0.1
63.6555	49.5
68.04907	53.1
72.43941	53.6
76.82654	55.1
81.21044	58.8
85.59113	61.2
89.96862	65
94.34289	62.9
98.71396	67.2
103.08183	65.6
107.4465	67.6
111.80798	70.5
116.16626	71.1
120.52136	77.5
124.87327	80.2
129.222	84.8
133.56755	89.9
137.90993	98
142.24913	112.8
146.58517	121.2
150.91804	142.7
155.24774	174.5
159.57429	219.4
163.89768	287.8
168.21792	378
172.53501	514.7
176.84895	728.8
181.15975	1021.5
185.46741	1431
189.77193	1973.5
194.07331	2627.5
198.37157	3403.8
202.6667	4229.9
206.9587	5038.2
211.24758	5888.9
215.53334	6783.9
219.81599	7773.6
224.09553	8935
228.37195	10163.9
232.64527	11523
236.91549	12881.3
241.18261	14128.1
245.44663	15119.6
249.70755	15868.4
253.96539	16501.2
258.22014	17105.5
262.4718	17633.1
266.72039	17969.2
270.96589	18054
275.20832	17912.1
279.44768	17700.4
283.68397	17435.3
287.91719	17353.2
292.14735	17393.2
296.37445	17667.1
300.59849	18224.7
304.81948	18870.1
309.03742	19370.3
313.25231	19393.6
317.46415	18725.1
321.67296	17629.3
325.87872	16582.8
330.08145	16073.5
334.28114	16037.8
338.47781	16204.3
342.67145	16561.5
346.86207	17104.1
351.04966	17942.5
355.23424	18841.5
359.4158	19506
363.59435	19775.8
367.76989	19797.3
371.94243	19717.1
376.11196	19584.2
380.27849	19505.4
384.44203	19404
388.60257	19243.8
392.76012	19211.6
396.91468	19376.8
401.06626	19741.7
405.21485	20046.5
409.36047	19691.9
413.50311	18806.9
417.64277	18002.9
421.77947	17666.7
425.9132	17630.8
430.04396	17774.3
434.17176	17948.7
438.2966	18259.3
442.41849	18935.7
446.53742	19859.9
450.6534	20756.4
454.76644	21253
458.87653	21140.1
462.98368	20661.4
467.08789	20100.8
471.18916	19508.9
475.2875	19036.9
479.38291	18609.6
483.4754	18384.8
487.56496	18012.9
491.6516	17600.2
495.73531	17257.2
499.81612	17106
503.89401	17209.8
507.96899	17371.3
512.04106	17425
516.11023	17395.3
520.1765	17362.1
524.23987	17281.5
528.30034	17212
532.35792	17080.8
536.41261	16733.9
540.46441	16294.6
544.51333	16125.3
548.55936	16316.1
552.60252	16973.8
556.64279	17798.5
560.6802	18443.8
564.71473	18907.7
568.7464	19841.9
572.7752	20777.5
576.80114	20725.2
580.82422	20375.4
584.84444	20497.7
588.86181	21262.8
592.87633	22405
596.888	22803.3
600.89682	22113.6
604.9028	22969.1
608.90594	27869.7
612.90624	34014.3
616.90371	31852.3
620.89834	22291.7
624.89015	17684.1
628.87913	16924.6
632.86528	17102.8
636.84862	17316.1
640.82913	16875.4
644.80683	15895.9
648.78172	15174
652.75379	15121.4
656.72306	15756.8
660.68952	16564.2
664.65319	16389.7
668.61405	15536.7
672.57211	15194.1
676.52738	15191
680.47986	15165.7
684.42955	14887.5
688.37646	14744.5
692.32058	14855.6
696.26192	15108.3
700.20048	15430.4
704.13626	15677.3
708.06928	15710.4
711.99952	15553.6
715.927	15493.9
719.85171	15590.9
723.77365	15604.5
727.69284	15332.3
731.60928	15174.9
735.52295	15183.9
739.43388	15311.1
743.34206	15423.6
747.24749	15521.7
751.15017	15697.7
755.05012	16073.6
758.94733	17091.7
762.8418	19397.6
766.73354	23292.2
770.62254	26955.7
774.50882	28013.9
778.39237	26137.9
782.27321	22429.3
786.15132	18905.3
790.02671	16740.4
793.89938	15684.4
797.76935	15233.8
801.6366	15084.3
805.50115	14944.2
809.36299	14794.1
813.22213	14656
817.07857	14615.5
820.93231	14523.8
824.78336	14521
828.63172	14558
832.47738	14532.6
836.32036	14500.1
840.16066	14466.9
843.99827	14454.5
847.8332	14400
851.66546	14371
855.49504	14346.2
859.32195	14335.3
863.1462	14246.7
866.96777	14193.8
870.78668	14138.3
874.60293	14162
878.41652	14232.7
882.22745	14378.6
886.03573	14480.2
889.84136	14482.9
893.64433	14372.5
897.44466	14303.3
901.24235	14230.5
905.0374	14091.3
908.8298	13984.1
912.61957	13905
916.40671	14056
920.19121	14347.3
923.97308	14673.6
927.75233	14807
931.52895	14841.2
935.30295	14515.3
939.07433	13973.7
942.84309	13543
946.60924	13370.2
950.37278	13269.9
954.13371	13258.2
957.89203	13180.1
961.64774	13172.1
965.40086	13136.8
969.15137	13107
972.89929	13018.6
976.64461	12981
980.38733	12950.4
984.12747	12998.4
987.86502	13145.3
991.59999	13350.1
995.33237	13699.4
999.06217	14332.5
1002.78939	15143.8
1006.51404	15836.7
1010.23611	16266.4
1013.95561	16564.3
1017.67255	16496.9
1021.38692	16036.2
1025.09872	15435
1028.80796	15159.8
1032.51465	15335.5
1036.21877	15656.4
1039.92035	15811.1
1043.61937	15746.4
1047.31584	15553.8
1051.00976	15275
1054.70114	15120
1058.38998	15083.9
1062.07627	15150.2
1065.76003	15315.2
1069.44126	15516.7
1073.11995	15795.8
1076.79611	16139
1080.46974	16533.7
1084.14085	17086.9
1087.80943	17665
1091.47549	17881.5
1095.13903	17628.7
1098.80005	16972.2
1102.45857	16368.2
1106.11456	16095.4
1109.76805	16169.5
1113.41903	16537.8
1117.06751	17194.5
1120.71348	18016.7
1124.35696	18899.9
1127.99793	19582.2
1131.63641	19351.1
1135.2724	18520.5
1138.90589	17776.5
1142.5369	17409.2
1146.16542	17189.9
1149.79145	17190.9
1153.415	17295.2
1157.03607	17651.9
1160.65467	18264.8
1164.27079	19414.6
1167.88443	21101.7
1171.49561	23619.1
1175.10432	27304.8
1178.71056	31984.5
1182.31434	35977.5
1185.91565	37233.5
1189.51451	36014.5
1193.11091	33736
1196.70485	31163.2
1200.29634	28790.6
1203.88538	26793.2
1207.47197	24939.2
1211.05612	23466.7
1214.63782	22617.6
1218.21708	22563.2
1221.79391	22835.3
1225.36829	22976.6
1228.94024	22464.4
1232.50976	21545.5
1236.07685	20710.2
1239.6415	20345.1
1243.20374	20227.1
1246.76355	20376.9
1250.32093	20699.3
1253.8759	21339.9
1257.42845	22243.1
1260.97859	23327.5
1264.52631	24437.5
1268.07163	25613.4
1271.61453	26631.3
1275.15503	27639
1278.69312	28536.2
1282.22882	29427.2
1285.76211	30623.6
1289.29301	32291.4
1292.82151	34161.4
1296.34761	36518.7
1299.87133	39619
1303.39266	43796.4
1306.9116	49144
1310.42815	54542.7
1313.94233	57426.3
1317.45412	56146.8
1320.96354	52644.1
1324.47058	48822.9
1327.97525	45598
1331.47754	43509.3
1334.97747	42588.3
1338.47502	42477.8
1341.97022	42698.3
1345.46305	43210.7
1348.95352	44057.2
1352.44163	45963.7
1355.92738	49684.5
1359.41078	55804.6
1362.89183	61106.9
1366.37053	58855.1
1369.84688	49758.6
1373.32088	40852.2
1376.79254	35710.6
1380.26186	33292.4
1383.72883	32213
1387.19347	31529.7
1390.65578	31069.7
1394.11575	31028.6
1397.57339	31593.3
1401.0287	32480.6
1404.48168	33097.1
1407.93234	33185.3
1411.38068	32636.4
1414.82669	31629.3
1418.27039	30073.7
1421.71177	28393.1
1425.15083	26928.9
1428.58758	26400.3
1432.02203	26775.3
1435.45416	27602.1
1438.88399	28311.2
1442.31151	28736.2
1445.73673	29184.2
1449.15965	29584.1
1452.58027	29717.5
1455.9986	29784.6
1459.41463	30090.1
1462.82837	30783.8
1466.23982	31752.1
1469.64898	32465
1473.05586	32839.6
1476.46045	32828
1479.86276	32712.2
1483.26279	32577.9
1486.66054	32913.2
1490.05602	33676.9
1493.44922	34792.9
1496.84016	36413
1500.22882	39094.8
1503.61521	43187.7
1506.99934	47894.5
1510.38121	51282.8
1513.76081	51267.1
1517.13816	47466.3
1520.51324	41818.2
1523.88607	37175.7
1527.25665	34573.7
1530.62498	33500.2
1533.99105	32958
1537.35488	32500.9
1540.71647	31773.8
1544.07581	30908.4
1547.4329	29997.3
1550.78776	29197.8
1554.14038	28688.5
1557.49077	28477.4
1560.83892	28692.2
1564.18484	29309.8
1567.52853	30105.6
1570.86999	30915.9
1574.20922	31440.6
1577.54624	31445.9
1580.88103	30247.5
1584.2136	28863.5
1587.54395	28774.5
1590.87208	30376.4
1594.19801	33424.4
1597.52172	36909.7
1600.84321	38422.5
1604.16251	36680.2
1607.47959	32995.4
1610.79447	28937.3
1614.10715	25261.9
1617.41763	22496.8
1620.7259	20731.4
1624.03199	19902.9
1627.33587	19935.4
1630.63757	20831.3
1633.93707	22926.7
1637.23439	26393.3
1640.52951	31808.7
1643.82246	38639.2
1647.11321	44892.4
1650.40179	47034.5
1653.68819	42979.2
1656.97241	34937.8
1660.25446	27135.8
1663.53433	21704.9
1666.81203	18459.7
1670.08756	16647.9
1673.36092	15466
1676.63211	14775.9
1679.90115	14240.6
1683.16801	13919.8
1686.43272	13649.8
1689.69527	13460.2
1692.95567	13304.5
1696.2139	13197.3
1699.46999	13112.7
1702.72392	13037.9
1705.97571	13000.8
1709.22535	12968.1
1712.47284	12943.2
1715.71819	12948.5
1718.96139	12859.8
1722.20246	12803.7
1725.44139	12705.3
1728.67818	12558
1731.91284	12411.4
1735.14537	12304.4
1738.37576	12206.1
1741.60403	12137.3
1744.83017	12085.3
1748.05418	12040.7
1751.27607	11990.2
1754.49584	11957
1757.71349	11948.8
1760.92903	11892.5
1764.14244	11875.6
1767.35375	11894
1770.56294	11834.8
1773.77002	11774.4
1776.97499	11753.4
1780.17785	11711.4
1783.37861	11704.9
1786.57727	11662.7
1789.77382	11623.8
1792.96828	11622.8
1796.16064	11581.2
1799.3509	11540.6
1802.53907	11539.2
1805.72514	11448.3
1808.90913	11427.3
1812.09102	11418.1
1815.27083	11379.6
1818.44856	11361.6
1821.6242	11311.5
1824.79776	11280.5
1827.96924	11253.3
1831.13864	11235.7
1834.30597	11238.6
1837.47122	11237.8
1840.6344	11238.6
1843.7955	11217.5
1846.95454	11213.4
1850.11151	11193.1
1853.26642	11181.3
1856.41926	11212.8
1859.57004	11209.6
1862.71876	11194
1865.86542	11192.1
1869.01003	11164.4
1872.15258	11217.9
1875.29308	11207.6
1878.43152	11185.9
1881.56792	11199.2
1884.70227	11213.4
1887.83457	11206.8
1890.96482	11197.6
1894.09304	11177.4
1897.21921	11191.6
1900.34335	11185.4
1903.46544	11196.5
1906.58551	11217.1
1909.70353	11208.3
1912.81953	11160.9
1915.93349	11112.7
1919.04543	11110.7
1922.15534	11082.8
1925.26322	11004.4
1928.36908	10969.3
1931.47292	10918.6
1934.57473	10891.3
1937.67453	10853.4
1940.77232	10825.4
1943.86808	10793.4
1946.96184	10733.4
1950.05358	10709.7
1953.14331	10720.9
1956.23103	10668.7
1959.31675	10640.5
1962.40046	10594.5
1965.48217	10615.7
1968.56188	10596.9
1971.63959	10570.1
1974.7153	10536.2
1977.78901	10502.9
1980.86073	10455.3
1983.93046	10428.8
1986.99819	10356.1
1990.06394	10343.8
1993.1277	10282.1
1996.18947	10261.5
1999.24925	10218.7
2002.30706	10190.1
2005.36288	10137.3
2008.41672	10117
2011.46859	10088.8
2014.51848	10035.8
2017.56639	9999.4
2020.61233	9984.7
2023.6563	9964.5
2026.6983	9946.5
2029.73833	9931.5
2032.7764	9925.1
2035.8125	9873.2
2038.84664	9872.2
2041.87881	9840.5
2044.90903	9867.1
2047.93729	9810.6
2050.96359	9819.7
2053.98794	9782.2
2057.01034	9766.6
2060.03078	9750
2063.04927	9726.9
2066.06582	9704.5
2069.08042	9695.2
2072.09307	9689.4
2075.10378	9652.6
2078.11255	9657.5
2081.11938	9675.1
2084.12426	9678.8
2087.12722	9700.8
2090.12824	9675.3
2093.12732	9684.6
2096.12447	9676.2
2099.11969	9681.1
2102.11299	9698.7
2105.10435	9674.8
2108.09379	9665
2111.08131	9681.7
2114.0669	9692
2117.05057	9684.3
2120.03233	9689.7
2123.01216	9699.2
2125.99008	9691.9
2128.96609	9706
2131.94018	9718.4
2134.91236	9701.2
2137.88263	9720.2
2140.851	9694.8
2143.81746	9694.5
2146.78201	9688.6
2149.74466	9655.5
2152.7054	9677.4
2155.66425	9655.2
2158.6212	9641.7
2161.57625	9634.7
2164.52941	9644.8
2167.48067	9628.1
2170.43004	9628.7
2173.37752	9610.4
2176.32311	9622.2
2179.26681	9633
2182.20863	9619.5
2185.14856	9620.8
2188.08661	9621.5
2191.02278	9643
2193.95707	9625.2
2196.88948	9586.4
2199.82001	9596.8
2202.74867	9548.1
2205.67545	9563.5
2208.60037	9554.2
2211.52341	9546.9
2214.44458	9536.1
2217.36388	9511.3
2220.28132	9506.8
2223.1969	9488
2226.11061	9471.3
2229.02246	9454.7
2231.93245	9437.2
2234.84058	9408.8
2237.74686	9394.5
2240.65128	9390.5
2243.55385	9390.5
2246.45456	9366.7
2249.35343	9352.5
2252.25044	9328.8
2255.14561	9343.5
2258.03893	9324.7
2260.93041	9315
2263.82004	9310.3
2266.70783	9267.6
2269.59378	9247.2
2272.4779	9236.8
2275.36017	9218.5
2278.24061	9179.7
2281.11922	9179.1
2283.996	9143
2286.87094	9136.3
2289.74405	9129
2292.61534	9108.9
2295.4848	9107.6
2298.35243	9084.4
2301.21824	9070.4
2304.08223	9100.4
2306.94439	9110.5
2309.80474	9104.5
2312.66327	9112.2
2315.51999	9078.6
2318.37489	9108.3
2321.22797	9101.3
2324.07925	9097.4
2326.92871	9107.1
2329.77637	9097.3
2332.62222	9107.5
2335.46626	9052.8
2338.3085	9088.4
2341.14893	9103.5
2343.98756	9115.4
2346.8244	9140.2
2349.65943	9139.1
2352.49267	9156.2
2355.32411	9166.5
2358.15376	9182.2
2360.98161	9157.7
2363.80768	9133.8
2366.63195	9154.8
2369.45444	9180.1
2372.27514	9151.3
2375.09405	9147.3
2377.91118	9135.3
2380.72652	9080.7
2383.54009	9040
2386.35187	9012.6
2389.16188	8982.4
2391.97011	8961.7
2394.77657	8934.1
2397.58125	8923.5
2400.38416	8891
2403.18529	8848.9
2405.98466	8859.5
2408.78226	8854.3
2411.57809	8821.9
2414.37216	8800.5
2417.16446	8812.4
2419.955	8785
2422.74378	8761
2425.5308	8781.7
2428.31606	8789.4
2431.09956	8754.2
2433.88131	8756.1
2436.6613	8757.8
2439.43954	8790.6
2442.21603	8793.6
2444.99077	8793.7
2447.76377	8813.7
2450.53501	8797.7
2453.30451	8813.2
2456.07226	8808.8
2458.83827	8833.7
2461.60254	8838.7
2464.36507	8828.3
2467.12586	8821.7
2469.88492	8824.9
2472.64224	8843.3
2475.39782	8844.3
2478.15167	8863.5
2480.90379	8877.6
2483.65417	8903.1
2486.40283	8940.8
2489.14976	8950.4
2491.89497	8968.3
2494.63845	8976.9
2497.3802	8952.3
2500.12024	8994.3
2502.85855	8997.2
2505.59514	8950.6
2508.33002	8912.5
2511.06318	8871.8
2513.79462	8840
2516.52435	8848
2519.25237	8815.7
2521.97867	8815.8
2524.70327	8794.1
2527.42616	8788.4
2530.14734	8785
2532.86681	8785.9
2535.58458	8801.9
2538.30065	8780.9
2541.01501	8772.4
2543.72768	8768.3
2546.43864	8771.6
2549.14791	8792.5
2551.85548	8786.8
2554.56136	8755.2
2557.26554	8767.9
2559.96803	8763.8
2562.66883	8756
2565.36794	8766
2568.06536	8758.5
2570.7611	8768.6
2573.45514	8751.3
2576.14751	8744.8
2578.83819	8730.1
2581.52719	8770.3
2584.21451	8753.9
2586.90015	8740.1
2589.58411	8718.9
2592.2664	8718.7
2594.94701	8708.8
2597.62594	8710
2600.30321	8712.2
2602.9788	8722.4
2605.65273	8725.5
2608.32498	8722.6
2610.99557	8747.6
2613.66449	8751.7
2616.33175	8774.1
2618.99734	8770.4
2621.66128	8779.5
2624.32355	8802.7
2626.98416	8806.7
2629.64311	8796.5
2632.30041	8790.9
2634.95605	8760.8
2637.61004	8772
2640.26238	8764.1
2642.91306	8741.7
2645.56209	8769.4
2648.20948	8739.7
2650.85521	8749.6
2653.4993	8750.5
2656.14175	8778.5
2658.78255	8776.7
2661.42171	8772.4
2664.05923	8805.7
2666.6951	8810.3
2669.32934	8838.7
2671.96194	8823.6
2674.59291	8837.2
2677.22224	8817.2
2679.84993	8837.8
2682.476	8829.7
2685.10043	8808.7
2687.72324	8804.7
2690.34441	8818.2
2692.96396	8786.1
2695.58188	8796.4
2698.19818	8776.1
2700.81285	8797
2703.4259	8778.4
2706.03733	8794.8
2708.64714	8780
2711.25533	8838.4
2713.86191	8801.1
2716.46687	8803.8
2719.07021	8825.7
2721.67194	8840.5
2724.27206	8834.5
2726.87057	8845.2
2729.46747	8842.3
2732.06276	8859.7
2734.65644	8835.5
2737.24852	8838.4
2739.83899	8826.9
2742.42786	8822.5
2745.01513	8789.7
2747.60079	8803.9
2750.18486	8793.1
2752.76733	8815.9
2755.3482	8830.6
2757.92747	8829.6
2760.50515	8823.2
2763.08123	8844.4
2765.65573	8795.9
2768.22863	8819.2
2770.79994	8826.9
2773.36967	8822.8
2775.9378	8821.7
2778.50435	8821.1
2781.06932	8851.1
2783.6327	8854.1
2786.1945	8831.6
2788.75471	8834.4
2791.31335	8828
2793.87041	8796.2
2796.42589	8785.8
2798.97979	8797.7
2801.53212	8777.3
2804.08288	8830.9
2806.63206	8792.5
2809.17967	8802
2811.72571	8773.9
2814.27018	8779.4
2816.81308	8765.9
2819.35442	8764.3
2821.89419	8760.1
2824.43239	8776.6
2826.96904	8773.8
2829.50412	8805.5
2832.03763	8767.8
2834.56959	8789.1
2837.1	8739.2
2839.62884	8752
2842.15613	8726.1
2844.68186	8757.5
2847.20604	8750.1
2849.72867	8753
2852.24974	8758.5
2854.76927	8757.5
2857.28724	8751.7
2859.80367	8772.1
2862.31855	8780.1
2864.83189	8796
2867.34368	8780
2869.85393	8815.1
2872.36264	8800.6
2874.8698	8807.3
2877.37543	8821.1
2879.87952	8793.3
2882.38207	8800.8
2884.88308	8801.1
2887.38256	8784
2889.88051	8813.4
2892.37692	8795.8
2894.8718	8791.6
2897.36515	8812.1
2899.85698	8808.2
2902.34727	8826.1
2904.83604	8843.8
2907.32328	8839.1
2909.809	8841
2912.29319	8837.2
2914.77587	8799.7
2917.25702	8791.9
2919.73665	8782.8
2922.21476	8809.5
2924.69136	8771.6
2927.16644	8763.8
2929.64	8758.3
2932.11205	8729.4
2934.58258	8690.2
2937.05161	8678.5
2939.51912	8695.5
2941.98513	8672.3
2944.44962	8645
2946.91261	8645.7
2949.37409	8658.7
2951.83407	8648.2
2954.29254	8647.8
2956.74951	8610.9
2959.20498	8601.2
2961.65895	8558
2964.11142	8568
2966.56239	8546.4
2969.01186	8509.9
2971.45984	8490.5
2973.90632	8476.7
2976.35131	8432.5
2978.7948	8416.2
2981.23681	8384.7
2983.67732	8379.8
2986.11635	8346.7
2988.55388	8292.6
2990.98993	8273.9
2993.4245	8278.8
2995.85758	8273.5
2998.28917	8247.6
3000.71928	8233.1
3003.14791	8234.6
3005.57506	8240
3008.00073	8216.8
3010.42493	8210.3
3012.84764	8198.2
3015.26888	8177.4
3017.68865	8150.2
3020.10694	8116.9
3022.52376	8086.2
3024.9391	8095.7
3027.35298	8062.6
3029.76539	8050.8
3032.17632	8043.7
3034.5858	8029
3036.9938	8038.7
3039.40034	8001.5
3041.80542	7990.4
3044.20903	7959.1
3046.61118	7957.8
3049.01187	7946.9
3051.4111	7919.7
3053.80888	7923.9
3056.20519	7890
3058.60005	7883.6
3060.99345	7863.8
3063.3854	7829.9
3065.7759	7823.3
3068.16494	7794.5
3070.55254	7755.7
3072.93868	7744.3
3075.32338	7700.4
3077.70662	7693.1
3080.08842	7678.4
3082.46878	7665.3
3084.84769	7660.4
3087.22515	7633.1
3089.60118	7622
3091.97576	7613.5
3094.3489	7602.5
3096.72061	7601
3099.09087	7592.8
3101.4597	7554.4
3103.82709	7564
3106.19305	7531.9
3108.55757	7524.6
3110.92066	7506
3113.28232	7501
3115.64255	7468.4
3118.00134	7437.3
3120.35871	7454.1
3122.71466	7438.6
3125.06917	7410.7
3127.42226	7413.4
3129.77393	7420.3
3132.12417	7434.7
3134.47299	7411.6
3136.82039	7402.3
3139.16636	7417.4
3141.51092	7417.8
3143.85406	7407.8
3146.19579	7408.4
3148.53609	7375.4
3150.87499	7356.4
3153.21246	7389.6
3155.54853	7376.5
3157.88318	7368.8
3160.21642	7350.1
3162.54826	7358.6
3164.87868	7346.4
3167.2077	7341.2
3169.5353	7348.7
3171.86151	7331
3174.18631	7340.5
3176.5097	7345.2
3178.83169	7345.5
3181.15228	7320.8
3183.47147	7334.1
3185.78926	7328.1
3188.10565	7332.3
3190.42065	7349.6
3192.73424	7346.3
3195.04645	7353.1
3197.35725	7350.2
3199.66667	7349.1
3201.97469	7353.3
3204.28132	7350.7
3206.58656	7337.8
3208.8904	7341.4
3211.19287	7334.5
3213.49394	7311.8
3215.79363	7360.1
3218.09193	7329.5
3220.38884	7325.6
3222.68438	7332.5
3224.97853	7329.4
3227.2713	7312.5
3229.56269	7306.2
3231.8527	7321.1
3234.14133	7300.5
3236.42858	7303.9
3238.71446	7293.7
3240.99896	7277.2
3243.28209	7306.3
3245.56384	7274.7
3247.84423	7294.2
3250.12324	7293
3252.40088	7271
3254.67715	7255.4
3256.95205	7225.5
3259.22558	7226.4
3261.49775	7198.8
3263.76855	7221.7
3266.03799	7178.3
3268.30606	7184.2
3270.57277	7185.3
3272.83812	7161.8
3275.10211	7181.3
3277.36474	7159.3
3279.62601	7168.3
3281.88593	7188.5
3284.14448	7188.3
3286.40168	7204.6
3288.65753	7178.1
3290.91202	7194.9
3293.16516	7167.6
3295.41695	7143.6
3297.66738	7120.5
3299.91647	7088.2
3302.16421	7051.1
3304.4106	7021.2
3306.65564	6979.8
3308.89933	6954.4
3311.14169	6885.6
3313.38269	6805.7
3315.62236	6789
3317.86068	6710.6
3320.09766	6624.8
3322.3333	6572
3324.5676	6564.2
3326.80056	6454.7
3329.03219	6437.9
3331.26248	2.6
3333.49143	-0.2
3335.71905	0.2
