Data from AgNP_FTO_APTES_UA_100uM_CRN_5uM_R6G_10uM_NaF_0.1M_Addition_RamanShift__5__14-44-20-356.txt Node

Date: Thu Mar 24 14:44:20 GMT 2022
User: TCL
Spectrometer: QEP01345
Trigger mode: 4
Integration Time (sec): 7.000000E0
Scans to average: 10
Electric dark correction enabled: true
Nonlinearity correction enabled: false
Boxcar width: 0
XAxis mode: Raman Shifts
Number of Pixels in Spectrum: 1044
>>>>>Begin Spectral Data<<<<<
46.04893	-0.725
50.45542	-0.125
54.85868	-0.225
59.25871	1.175
63.6555	27.775
68.04907	31.775
72.43941	31.675
76.82654	33.475
81.21044	37.275
85.59113	38.775
89.96862	37.975
94.34289	37.875
98.71396	39.275
103.08183	36.575
107.4465	39.375
111.80798	43.075
116.16626	42.775
120.52136	41.875
124.87327	42.175
129.222	46.775
133.56755	50.775
137.90993	54.275
142.24913	61.875
146.58517	65.575
150.91804	77.175
155.24774	93.375
159.57429	116.475
163.89768	147.275
168.21792	193.875
172.53501	266.875
176.84895	376.275
181.15975	531.475
185.46741	747.575
189.77193	1028.875
194.07331	1374.575
198.37157	1774.775
202.6667	2210.175
206.9587	2655.975
211.24758	3096.675
215.53334	3561.275
219.81599	4067.775
224.09553	4640.075
228.37195	5301.475
232.64527	5990.875
236.91549	6687.175
241.18261	7290.775
245.44663	7780.775
249.70755	8118.375
253.96539	8419.475
258.22014	8680.275
262.4718	8890.975
266.72039	9034.375
270.96589	9076.075
275.20832	8986.175
279.44768	8820.975
283.68397	8649.875
287.91719	8526.175
292.14735	8499.075
296.37445	8651.775
300.59849	8969.875
304.81948	9400.675
309.03742	9766.875
313.25231	9894.575
317.46415	9688.875
321.67296	9114.075
325.87872	8611.675
330.08145	8349.675
334.28114	8296.975
338.47781	8430.575
342.67145	8600.075
346.86207	8929.875
351.04966	9332.875
355.23424	9795.075
359.4158	10145.475
363.59435	10271.175
367.76989	10230.875
371.94243	10148.775
376.11196	10018.675
380.27849	9946.375
384.44203	9865.275
388.60257	9783.775
392.76012	9812.875
396.91468	9906.375
401.06626	10140.175
405.21485	10307.175
409.36047	10097.175
413.50311	9591.175
417.64277	9136.975
421.77947	8877.375
425.9132	8826.875
430.04396	8819.175
434.17176	8886.475
438.2966	9034.875
442.41849	9323.475
446.53742	9724.875
450.6534	10134.475
454.76644	10350.975
458.87653	10319.075
462.98368	10081.675
467.08789	9819.575
471.18916	9509.375
475.2875	9199.675
479.38291	8919.175
483.4754	8679.475
487.56496	8511.075
491.6516	8449.775
495.73531	8406.275
499.81612	8442.475
503.89401	8514.275
507.96899	8598.675
512.04106	8677.875
516.11023	8745.775
520.1765	8815.475
524.23987	8872.975
528.30034	8893.175
532.35792	8903.775
536.41261	8729.875
540.46441	8517.975
544.51333	8382.775
548.55936	8418.975
552.60252	8610.375
556.64279	8873.275
560.6802	9049.275
564.71473	9142.975
568.7464	9372.075
572.7752	9601.475
576.80114	9529.875
580.82422	9520.275
584.84444	9797.775
588.86181	10320.275
592.87633	11061.175
596.888	11611.375
600.89682	11455.975
604.9028	11766.875
608.90594	14257.075
612.90624	17771.075
616.90371	16950.575
620.89834	11821.075
624.89015	9226.075
628.87913	8744.675
632.86528	8928.175
636.84862	9077.275
640.82913	8895.575
644.80683	8399.675
648.78172	8054.175
652.75379	8053.075
656.72306	8410.175
660.68952	8838.075
664.65319	8712.375
668.61405	8190.975
672.57211	7970.975
676.52738	7970.775
680.47986	7962.975
684.42955	7839.875
688.37646	7718.275
692.32058	7769.875
696.26192	7887.775
700.20048	8046.175
704.13626	8138.075
708.06928	8128.275
711.99952	8077.375
715.927	8043.175
719.85171	8161.275
723.77365	8223.675
727.69284	8134.775
731.60928	8063.275
735.52295	8090.875
739.43388	8109.675
743.34206	8143.675
747.24749	8143.275
751.15017	8153.375
755.05012	8273.475
758.94733	8694.075
762.8418	9786.275
766.73354	11629.975
770.62254	13376.975
774.50882	13990.275
778.39237	13387.775
782.27321	11701.875
786.15132	9942.575
790.02671	8794.375
793.89938	8239.275
797.76935	7985.275
801.6366	7896.975
805.50115	7808.775
809.36299	7759.675
813.22213	7705.875
817.07857	7680.475
820.93231	7652.375
824.78336	7666.275
828.63172	7688.675
832.47738	7719.875
836.32036	7688.175
840.16066	7632.675
843.99827	7627.275
847.8332	7582.575
851.66546	7603.775
855.49504	7622.275
859.32195	7615.275
863.1462	7577.375
866.96777	7549.575
870.78668	7566.275
874.60293	7574.875
878.41652	7628.875
882.22745	7715.075
886.03573	7780.575
889.84136	7758.875
893.64433	7728.575
897.44466	7704.175
901.24235	7690.875
905.0374	7625.775
908.8298	7552.375
912.61957	7474.275
916.40671	7500.675
920.19121	7530.375
923.97308	7667.275
927.75233	7834.775
931.52895	7967.075
935.30295	7816.375
939.07433	7540.475
942.84309	7329.175
946.60924	7189.375
950.37278	7142.075
954.13371	7134.375
957.89203	7112.475
961.64774	7106.475
965.40086	7105.675
969.15137	7100.275
972.89929	7092.375
976.64461	7110.275
980.38733	7113.775
984.12747	7126.675
987.86502	7154.875
991.59999	7226.775
995.33237	7355.175
999.06217	7598.875
1002.78939	7862.175
1006.51404	8117.975
1010.23611	8320.675
1013.95561	8470.175
1017.67255	8441.875
1021.38692	8220.375
1025.09872	7954.075
1028.80796	7764.275
1032.51465	7764.975
1036.21877	7813.975
1039.92035	7895.375
1043.61937	7909.775
1047.31584	7896.075
1051.00976	7875.775
1054.70114	7847.075
1058.38998	7798.375
1062.07627	7829.075
1065.76003	7868.575
1069.44126	7994.675
1073.11995	8185.175
1076.79611	8438.275
1080.46974	8680.275
1084.14085	8956.875
1087.80943	9210.975
1091.47549	9319.775
1095.13903	9144.675
1098.80005	8778.275
1102.45857	8474.875
1106.11456	8360.775
1109.76805	8378.175
1113.41903	8566.775
1117.06751	8849.975
1120.71348	9293.675
1124.35696	9803.275
1127.99793	10206.375
1131.63641	10105.975
1135.2724	9627.075
1138.90589	9168.675
1142.5369	8894.175
1146.16542	8777.875
1149.79145	8687.675
1153.415	8686.375
1157.03607	8740.375
1160.65467	8956.975
1164.27079	9421.875
1167.88443	10071.775
1171.49561	11138.975
1175.10432	12763.075
1178.71056	14884.175
1182.31434	16653.475
1185.91565	17231.175
1189.51451	16723.075
1193.11091	15639.975
1196.70485	14375.575
1200.29634	13254.775
1203.88538	12281.175
1207.47197	11321.375
1211.05612	10571.775
1214.63782	10176.075
1218.21708	10044.775
1221.79391	10082.275
1225.36829	10179.875
1228.94024	10157.875
1232.50976	9949.875
1236.07685	9753.275
1239.6415	9699.775
1243.20374	9734.875
1246.76355	9802.575
1250.32093	9888.775
1253.8759	10089.075
1257.42845	10490.675
1260.97859	11049.175
1264.52631	11664.175
1268.07163	12255.075
1271.61453	12689.875
1275.15503	12931.175
1278.69312	13084.175
1282.22882	13334.275
1285.76211	13818.975
1289.29301	14512.875
1292.82151	15208.975
1296.34761	15970.375
1299.87133	17016.575
1303.39266	18643.675
1306.9116	20977.375
1310.42815	23529.775
1313.94233	24806.475
1317.45412	23972.575
1320.96354	21985.675
1324.47058	19978.675
1327.97525	18182.675
1331.47754	16962.575
1334.97747	16294.975
1338.47502	16189.375
1341.97022	16475.575
1345.46305	17150.275
1348.95352	18250.675
1352.44163	19790.175
1355.92738	22058.975
1359.41078	25435.475
1362.89183	28647.175
1366.37053	27957.175
1369.84688	23318.575
1373.32088	18587.375
1376.79254	15859.475
1380.26186	14695.075
1383.72883	14004.575
1387.19347	13226.075
1390.65578	12478.575
1394.11575	11957.775
1397.57339	11764.375
1401.0287	11800.775
1404.48168	11874.375
1407.93234	11910.575
1411.38068	11995.875
1414.82669	12034.575
1418.27039	11960.875
1421.71177	11736.175
1425.15083	11408.875
1428.58758	11300.275
1432.02203	11575.475
1435.45416	11965.975
1438.88399	12266.175
1442.31151	12339.675
1445.73673	12397.175
1449.15965	12473.075
1452.58027	12372.375
1455.9986	12119.475
1459.41463	11935.675
1462.82837	12086.375
1466.23982	12558.175
1469.64898	13132.775
1473.05586	13645.275
1476.46045	14060.975
1479.86276	14492.975
1483.26279	14953.675
1486.66054	15407.775
1490.05602	16192.975
1493.44922	17198.475
1496.84016	18349.975
1500.22882	19711.575
1503.61521	21712.075
1506.99934	24067.675
1510.38121	25918.875
1513.76081	25872.375
1517.13816	23552.375
1520.51324	20113.975
1523.88607	17151.775
1527.25665	15295.675
1530.62498	14362.175
1533.99105	13790.175
1537.35488	13336.275
1540.71647	12997.175
1544.07581	12690.375
1547.4329	12435.375
1550.78776	12182.675
1554.14038	12066.975
1557.49077	12047.775
1560.83892	12171.675
1564.18484	12582.475
1567.52853	13256.475
1570.86999	13864.975
1574.20922	14237.075
1577.54624	14173.075
1580.88103	13384.675
1584.2136	12386.675
1587.54395	11951.075
1590.87208	12329.075
1594.19801	13445.575
1597.52172	14990.275
1600.84321	15884.575
1604.16251	15401.075
1607.47959	14026.075
1610.79447	12454.875
1614.10715	11059.275
1617.41763	9983.075
1620.7259	9315.875
1624.03199	9052.475
1627.33587	9073.575
1630.63757	9438.075
1633.93707	10209.875
1637.23439	11631.075
1640.52951	13946.075
1643.82246	17210.075
1647.11321	20505.175
1650.40179	22051.475
1653.68819	20532.075
1656.97241	16862.275
1660.25446	13171.375
1663.53433	10607.875
1666.81203	9149.775
1670.08756	8325.775
1673.36092	7835.775
1676.63211	7529.375
1679.90115	7315.375
1683.16801	7158.575
1686.43272	7015.775
1689.69527	6919.275
1692.95567	6888.675
1696.2139	6828.675
1699.46999	6808.075
1702.72392	6773.275
1705.97571	6725.475
1709.22535	6732.075
1712.47284	6703.975
1715.71819	6699.875
1718.96139	6689.675
1722.20246	6661.575
1725.44139	6609.175
1728.67818	6551.375
1731.91284	6469.275
1735.14537	6424.975
1738.37576	6363.775
1741.60403	6335.775
1744.83017	6313.375
1748.05418	6291.575
1751.27607	6262.275
1754.49584	6263.075
1757.71349	6260.175
1760.92903	6255.375
1764.14244	6221.675
1767.35375	6224.075
1770.56294	6183.975
1773.77002	6165.675
1776.97499	6129.575
1780.17785	6108.975
1783.37861	6082.575
1786.57727	6064.575
1789.77382	6050.275
1792.96828	6046.375
1796.16064	6012.675
1799.3509	6022.075
1802.53907	5996.075
1805.72514	5956.575
1808.90913	5953.875
1812.09102	5920.475
1815.27083	5903.775
1818.44856	5890.775
1821.6242	5877.275
1824.79776	5884.675
1827.96924	5857.075
1831.13864	5882.875
1834.30597	5856.775
1837.47122	5844.075
1840.6344	5835.375
1843.7955	5839.075
1846.95454	5821.875
1850.11151	5818.075
1853.26642	5816.575
1856.41926	5790.475
1859.57004	5785.375
1862.71876	5789.175
1865.86542	5786.275
1869.01003	5787.875
1872.15258	5787.375
1875.29308	5782.275
1878.43152	5752.175
1881.56792	5769.875
1884.70227	5759.575
1887.83457	5760.275
1890.96482	5751.775
1894.09304	5746.175
1897.21921	5739.075
1900.34335	5739.375
1903.46544	5754.375
1906.58551	5736.375
1909.70353	5742.375
1912.81953	5717.975
1915.93349	5719.675
1919.04543	5684.275
1922.15534	5675.675
1925.26322	5660.975
1928.36908	5651.175
1931.47292	5622.775
1934.57473	5597.875
1937.67453	5585.175
1940.77232	5563.775
1943.86808	5545.375
1946.96184	5530.275
1950.05358	5505.875
1953.14331	5499.575
1956.23103	5481.375
1959.31675	5475.475
1962.40046	5445.875
1965.48217	5443.675
1968.56188	5430.475
1971.63959	5413.175
1974.7153	5407.875
1977.78901	5381.375
1980.86073	5369.375
1983.93046	5332.175
1986.99819	5321.875
1990.06394	5290.475
1993.1277	5267.975
1996.18947	5252.375
1999.24925	5231.275
2002.30706	5206.575
2005.36288	5180.775
2008.41672	5165.775
2011.46859	5171.475
2014.51848	5153.275
2017.56639	5132.775
2020.61233	5126.875
2023.6563	5099.775
2026.6983	5092.375
2029.73833	5082.975
2032.7764	5061.275
2035.8125	5061.275
2038.84664	5052.575
2041.87881	5059.075
2044.90903	5057.175
2047.93729	5040.675
2050.96359	5020.075
2053.98794	5020.975
2057.01034	5011.575
2060.03078	5002.575
2063.04927	4982.775
2066.06582	4981.775
2069.08042	4980.075
2072.09307	5000.475
2075.10378	4974.775
2078.11255	4978.075
2081.11938	4987.575
2084.12426	4974.075
2087.12722	4978.775
2090.12824	4978.175
2093.12732	4990.575
2096.12447	4990.475
2099.11969	4979.775
2102.11299	4964.275
2105.10435	4990.775
2108.09379	4968.275
2111.08131	4981.275
2114.0669	4972.775
2117.05057	4978.775
2120.03233	4977.875
2123.01216	4971.275
2125.99008	4973.575
2128.96609	4986.575
2131.94018	4978.875
2134.91236	4978.775
2137.88263	4976.575
2140.851	4983.475
2143.81746	4981.275
2146.78201	4987.275
2149.74466	4983.775
2152.7054	4977.775
2155.66425	4952.175
2158.6212	4953.775
2161.57625	4967.375
2164.52941	4952.175
2167.48067	4943.675
2170.43004	4940.275
2173.37752	4960.075
2176.32311	4934.275
2179.26681	4951.675
2182.20863	4952.575
2185.14856	4941.375
2188.08661	4924.975
2191.02278	4936.675
2193.95707	4941.675
2196.88948	4925.775
2199.82001	4917.175
2202.74867	4898.375
2205.67545	4904.575
2208.60037	4913.975
2211.52341	4898.475
2214.44458	4888.875
2217.36388	4869.375
2220.28132	4874.475
2223.1969	4858.375
2226.11061	4850.875
2229.02246	4850.675
2231.93245	4827.575
2234.84058	4819.575
2237.74686	4817.575
2240.65128	4818.175
2243.55385	4812.275
2246.45456	4808.775
2249.35343	4799.375
2252.25044	4801.175
2255.14561	4787.475
2258.03893	4792.175
2260.93041	4791.775
2263.82004	4771.875
2266.70783	4759.475
2269.59378	4773.075
2272.4779	4752.575
2275.36017	4749.675
2278.24061	4723.575
2281.11922	4708.175
2283.996	4720.975
2286.87094	4695.175
2289.74405	4671.175
2292.61534	4670.575
2295.4848	4657.875
2298.35243	4673.575
2301.21824	4657.675
2304.08223	4654.975
2306.94439	4654.875
2309.80474	4644.775
2312.66327	4638.575
2315.51999	4637.675
2318.37489	4632.175
2321.22797	4628.775
2324.07925	4646.675
2326.92871	4637.075
2329.77637	4630.375
2332.62222	4618.175
2335.46626	4615.075
2338.3085	4624.475
2341.14893	4616.075
2343.98756	4603.775
2346.8244	4619.275
2349.65943	4624.775
2352.49267	4619.375
2355.32411	4631.375
2358.15376	4633.175
2360.98161	4646.175
2363.80768	4656.575
2366.63195	4655.175
2369.45444	4649.875
2372.27514	4667.375
2375.09405	4647.175
2377.91118	4648.775
2380.72652	4622.775
2383.54009	4618.475
2386.35187	4611.075
2389.16188	4560.275
2391.97011	4565.775
2394.77657	4552.975
2397.58125	4517.775
2400.38416	4527.175
2403.18529	4518.475
2405.98466	4496.975
2408.78226	4502.175
2411.57809	4493.875
2414.37216	4463.275
2417.16446	4461.175
2419.955	4465.175
2422.74378	4467.275
2425.5308	4454.475
2428.31606	4452.675
2431.09956	4460.575
2433.88131	4460.675
2436.6613	4466.675
2439.43954	4463.975
2442.21603	4470.875
2444.99077	4462.875
2447.76377	4486.175
2450.53501	4483.975
2453.30451	4473.075
2456.07226	4472.175
2458.83827	4476.175
2461.60254	4492.375
2464.36507	4492.675
2467.12586	4487.875
2469.88492	4493.075
2472.64224	4482.875
2475.39782	4485.875
2478.15167	4491.675
2480.90379	4502.375
2483.65417	4503.275
2486.40283	4522.275
2489.14976	4531.175
2491.89497	4535.875
2494.63845	4527.175
2497.3802	4542.375
2500.12024	4531.175
2502.85855	4534.275
2505.59514	4502.875
2508.33002	4494.175
2511.06318	4470.175
2513.79462	4455.375
2516.52435	4444.375
2519.25237	4424.475
2521.97867	4446.375
2524.70327	4430.375
2527.42616	4401.775
2530.14734	4407.375
2532.86681	4387.875
2535.58458	4395.675
2538.30065	4403.875
2541.01501	4403.575
2543.72768	4392.875
2546.43864	4398.975
2549.14791	4393.575
2551.85548	4406.975
2554.56136	4408.975
2557.26554	4400.775
2559.96803	4396.675
2562.66883	4396.775
2565.36794	4389.775
2568.06536	4389.175
2570.7611	4379.275
2573.45514	4387.675
2576.14751	4380.475
2578.83819	4355.275
2581.52719	4366.675
2584.21451	4352.375
2586.90015	4344.075
2589.58411	4338.975
2592.2664	4338.175
2594.94701	4341.975
2597.62594	4340.875
2600.30321	4312.275
2602.9788	4330.275
2605.65273	4323.475
2608.32498	4330.075
2610.99557	4319.975
2613.66449	4309.775
2616.33175	4313.375
2618.99734	4314.775
2621.66128	4319.875
2624.32355	4321.075
2626.98416	4304.875
2629.64311	4297.275
2632.30041	4294.275
2634.95605	4288.275
2637.61004	4292.475
2640.26238	4281.475
2642.91306	4280.675
2645.56209	4284.575
2648.20948	4285.775
2650.85521	4279.075
2653.4993	4290.075
2656.14175	4275.675
2658.78255	4307.475
2661.42171	4291.075
2664.05923	4304.275
2666.6951	4294.275
2669.32934	4332.475
2671.96194	4326.175
2674.59291	4320.375
2677.22224	4317.875
2679.84993	4328.275
2682.476	4307.675
2685.10043	4315.275
2687.72324	4307.375
2690.34441	4318.475
2692.96396	4303.375
2695.58188	4315.775
2698.19818	4292.075
2700.81285	4291.275
2703.4259	4315.875
2706.03733	4304.175
2708.64714	4299.775
2711.25533	4324.075
2713.86191	4293.675
2716.46687	4320.375
2719.07021	4329.475
2721.67194	4318.175
2724.27206	4314.675
2726.87057	4321.575
2729.46747	4317.275
2732.06276	4329.875
2734.65644	4319.575
2737.24852	4318.375
2739.83899	4301.775
2742.42786	4298.475
2745.01513	4297.775
2747.60079	4294.675
2750.18486	4286.975
2752.76733	4290.875
2755.3482	4286.275
2757.92747	4270.675
2760.50515	4275.175
2763.08123	4269.575
2765.65573	4272.475
2768.22863	4271.275
2770.79994	4263.275
2773.36967	4269.375
2775.9378	4257.575
2778.50435	4261.875
2781.06932	4264.275
2783.6327	4258.875
2786.1945	4252.175
2788.75471	4253.775
2791.31335	4231.775
2793.87041	4254.575
2796.42589	4238.375
2798.97979	4254.675
2801.53212	4221.375
2804.08288	4244.375
2806.63206	4246.775
2809.17967	4251.875
2811.72571	4230.975
2814.27018	4251.875
2816.81308	4246.575
2819.35442	4245.475
2821.89419	4232.075
2824.43239	4242.275
2826.96904	4245.775
2829.50412	4263.475
2832.03763	4232.075
2834.56959	4239.275
2837.1	4241.475
2839.62884	4240.375
2842.15613	4220.575
2844.68186	4228.775
2847.20604	4237.275
2849.72867	4229.875
2852.24974	4230.375
2854.76927	4247.475
2857.28724	4237.275
2859.80367	4236.275
2862.31855	4230.775
2864.83189	4256.575
2867.34368	4241.575
2869.85393	4248.275
2872.36264	4227.575
2874.8698	4246.275
2877.37543	4256.575
2879.87952	4245.175
2882.38207	4240.475
2884.88308	4237.075
2887.38256	4240.175
2889.88051	4219.675
2892.37692	4232.975
2894.8718	4220.775
2897.36515	4221.075
2899.85698	4239.975
2902.34727	4242.175
2904.83604	4237.275
2907.32328	4230.175
2909.809	4239.875
2912.29319	4238.375
2914.77587	4241.275
2917.25702	4252.275
2919.73665	4228.675
2922.21476	4231.875
2924.69136	4228.475
2927.16644	4228.075
2929.64	4207.875
2932.11205	4198.675
2934.58258	4186.775
2937.05161	4194.975
2939.51912	4189.275
2941.98513	4176.775
2944.44962	4175.475
2946.91261	4157.075
2949.37409	4161.875
2951.83407	4165.175
2954.29254	4154.175
2956.74951	4161.775
2959.20498	4142.475
2961.65895	4140.175
2964.11142	4139.575
2966.56239	4123.375
2969.01186	4137.075
2971.45984	4126.475
2973.90632	4104.975
2976.35131	4105.975
2978.7948	4086.575
2981.23681	4069.975
2983.67732	4064.575
2986.11635	4062.875
2988.55388	4035.175
2990.98993	4037.675
2993.4245	4028.875
2995.85758	4024.075
2998.28917	4006.875
3000.71928	4010.675
3003.14791	3988.375
3005.57506	3986.275
3008.00073	3984.175
3010.42493	3990.575
3012.84764	3987.175
3015.26888	3983.975
3017.68865	3960.975
3020.10694	3963.375
3022.52376	3945.475
3024.9391	3952.775
3027.35298	3939.375
3029.76539	3940.175
3032.17632	3925.375
3034.5858	3914.375
3036.9938	3896.475
3039.40034	3900.775
3041.80542	3872.375
3044.20903	3876.775
3046.61118	3861.575
3049.01187	3862.175
3051.4111	3851.775
3053.80888	3864.475
3056.20519	3859.675
3058.60005	3863.475
3060.99345	3843.175
3063.3854	3852.575
3065.7759	3839.475
3068.16494	3837.975
3070.55254	3829.375
3072.93868	3818.875
3075.32338	3798.275
3077.70662	3800.375
3080.08842	3800.475
3082.46878	3789.275
3084.84769	3777.875
3087.22515	3787.275
3089.60118	3784.475
3091.97576	3772.275
3094.3489	3775.375
3096.72061	3774.775
3099.09087	3779.575
3101.4597	3777.275
3103.82709	3772.575
3106.19305	3772.975
3108.55757	3768.575
3110.92066	3750.275
3113.28232	3740.075
3115.64255	3738.475
3118.00134	3731.975
3120.35871	3724.675
3122.71466	3724.975
3125.06917	3719.075
3127.42226	3740.875
3129.77393	3742.975
3132.12417	3726.175
3134.47299	3742.775
3136.82039	3743.675
3139.16636	3735.575
3141.51092	3750.175
3143.85406	3738.575
3146.19579	3753.675
3148.53609	3741.375
3150.87499	3746.775
3153.21246	3749.875
3155.54853	3757.575
3157.88318	3738.975
3160.21642	3739.375
3162.54826	3735.475
3164.87868	3742.375
3167.2077	3739.275
3169.5353	3729.575
3171.86151	3734.175
3174.18631	3730.875
3176.5097	3734.775
3178.83169	3730.775
3181.15228	3721.875
3183.47147	3727.075
3185.78926	3723.675
3188.10565	3718.575
3190.42065	3718.975
3192.73424	3738.575
3195.04645	3741.175
3197.35725	3736.675
3199.66667	3734.075
3201.97469	3756.775
3204.28132	3748.875
3206.58656	3748.575
3208.8904	3753.675
3211.19287	3741.175
3213.49394	3759.175
3215.79363	3754.175
3218.09193	3758.075
3220.38884	3756.675
3222.68438	3757.375
3224.97853	3747.675
3227.2713	3756.275
3229.56269	3740.975
3231.8527	3743.975
3234.14133	3738.075
3236.42858	3731.275
3238.71446	3734.775
3240.99896	3722.575
3243.28209	3741.375
3245.56384	3741.975
3247.84423	3745.475
3250.12324	3725.475
3252.40088	3730.475
3254.67715	3718.075
3256.95205	3708.375
3259.22558	3702.175
3261.49775	3695.275
3263.76855	3688.375
3266.03799	3697.275
3268.30606	3685.675
3270.57277	3679.375
3272.83812	3684.475
3275.10211	3678.675
3277.36474	3679.075
3279.62601	3689.375
3281.88593	3693.875
3284.14448	3679.975
3286.40168	3679.175
3288.65753	3691.275
3290.91202	3697.775
3293.16516	3695.075
3295.41695	3679.975
3297.66738	3667.775
3299.91647	3668.375
3302.16421	3635.775
3304.4106	3627.975
3306.65564	3616.475
3308.89933	3591.175
3311.14169	3561.275
3313.38269	3540.075
3315.62236	3522.175
3317.86068	3489.475
3320.09766	3464.875
3322.3333	3405.075
3324.5676	3425.675
3326.80056	3369.475
3329.03219	3357.075
3331.26248	0.475
3333.49143	-1.425
3335.71905	1.175
