Data from AgNPs_UA_50uM_CRN_500uM_AS_RamanShift__23__15-32-21-569.txt Node

Date: Wed Aug 17 15:32:21 BST 2022
User: TCL
Spectrometer: QEP01345
Trigger mode: 4
Integration Time (sec): 7.000000E0
Scans to average: 10
Electric dark correction enabled: true
Nonlinearity correction enabled: false
Boxcar width: 0
XAxis mode: Raman Shifts
Number of Pixels in Spectrum: 1044
>>>>>Begin Spectral Data<<<<<
46.04893	-0.7375
50.45542	-0.3375
54.85868	-1.2375
59.25871	-1.0375
63.6555	28.8625
68.04907	27.2625
72.43941	32.4625
76.82654	34.1625
81.21044	34.5625
85.59113	35.5625
89.96862	35.0625
94.34289	42.5625
98.71396	41.5625
103.08183	40.7625
107.4465	43.5625
111.80798	41.0625
116.16626	43.0625
120.52136	42.4625
124.87327	40.7625
129.222	41.8625
133.56755	41.8625
137.90993	44.3625
142.24913	53.1625
146.58517	51.4625
150.91804	55.5625
155.24774	59.9625
159.57429	67.4625
163.89768	87.5625
168.21792	105.8625
172.53501	138.4625
176.84895	183.2625
181.15975	250.6625
185.46741	342.3625
189.77193	469.7625
194.07331	631.3625
198.37157	815.4625
202.6667	1003.7625
206.9587	1200.4625
211.24758	1406.1625
215.53334	1634.4625
219.81599	1863.9625
224.09553	2144.9625
228.37195	2458.0625
232.64527	2764.5625
236.91549	3068.7625
241.18261	3332.5625
245.44663	3495.1625
249.70755	3615.6625
253.96539	3730.7625
258.22014	3829.8625
262.4718	3900.1625
266.72039	3968.3625
270.96589	3953.2625
275.20832	3865.8625
279.44768	3753.3625
283.68397	3637.7625
287.91719	3546.2625
292.14735	3568.5625
296.37445	3686.9625
300.59849	3917.8625
304.81948	4175.1625
309.03742	4341.0625
313.25231	4345.5625
317.46415	4100.5625
321.67296	3739.3625
325.87872	3443.8625
330.08145	3320.9625
334.28114	3329.6625
338.47781	3417.7625
342.67145	3518.9625
346.86207	3688.6625
351.04966	3960.1625
355.23424	4293.9625
359.4158	4547.4625
363.59435	4678.7625
367.76989	4710.1625
371.94243	4675.8625
376.11196	4632.3625
380.27849	4597.2625
384.44203	4510.9625
388.60257	4432.4625
392.76012	4355.6625
396.91468	4380.7625
401.06626	4435.3625
405.21485	4495.9625
409.36047	4345.3625
413.50311	4045.6625
417.64277	3767.0625
421.77947	3622.0625
425.9132	3546.8625
430.04396	3540.3625
434.17176	3564.4625
438.2966	3614.1625
442.41849	3692.9625
446.53742	3792.2625
450.6534	3855.0625
454.76644	3892.3625
458.87653	3888.6625
462.98368	3851.3625
467.08789	3798.5625
471.18916	3745.6625
475.2875	3675.1625
479.38291	3613.1625
483.4754	3574.2625
487.56496	3529.2625
491.6516	3540.7625
495.73531	3545.7625
499.81612	3559.7625
503.89401	3619.9625
507.96899	3685.8625
512.04106	3773.5625
516.11023	3875.0625
520.1765	3948.2625
524.23987	3948.4625
528.30034	3888.9625
532.35792	3840.1625
536.41261	3778.6625
540.46441	3700.5625
544.51333	3667.9625
548.55936	3701.9625
552.60252	3764.5625
556.64279	3861.4625
560.6802	3928.0625
564.71473	4046.7625
568.7464	4243.5625
572.7752	4276.8625
576.80114	4008.2625
580.82422	3797.6625
584.84444	3698.2625
588.86181	3692.6625
592.87633	3728.5625
596.888	3818.7625
600.89682	4052.4625
604.9028	4779.7625
608.90594	6588.9625
612.90624	8585.7625
616.90371	7816.5625
620.89834	5237.7625
624.89015	4162.8625
628.87913	3999.5625
632.86528	4122.8625
636.84862	4263.3625
640.82913	4192.2625
644.80683	3964.6625
648.78172	3813.6625
652.75379	3832.9625
656.72306	4021.0625
660.68952	4228.8625
664.65319	4113.3625
668.61405	3865.9625
672.57211	3782.5625
676.52738	3809.2625
680.47986	3846.8625
684.42955	3818.6625
688.37646	3782.7625
692.32058	3753.8625
696.26192	3765.8625
700.20048	3811.1625
704.13626	3820.4625
708.06928	3793.2625
711.99952	3774.5625
715.927	3764.7625
719.85171	3795.9625
723.77365	3827.1625
727.69284	3826.1625
731.60928	3809.9625
735.52295	3795.9625
739.43388	3810.8625
743.34206	3821.6625
747.24749	3823.9625
751.15017	3848.4625
755.05012	3901.3625
758.94733	4146.8625
762.8418	4762.8625
766.73354	5775.1625
770.62254	6707.5625
774.50882	7105.8625
778.39237	6683.6625
782.27321	5693.6625
786.15132	4738.3625
790.02671	4216.7625
793.89938	3988.0625
797.76935	3894.2625
801.6366	3869.4625
805.50115	3852.2625
809.36299	3849.6625
813.22213	3843.4625
817.07857	3824.1625
820.93231	3822.2625
824.78336	3824.7625
828.63172	3841.8625
832.47738	3853.5625
836.32036	3816.7625
840.16066	3801.2625
843.99827	3792.7625
847.8332	3787.7625
851.66546	3802.3625
855.49504	3807.5625
859.32195	3828.0625
863.1462	3839.1625
866.96777	3852.0625
870.78668	3835.2625
874.60293	3861.8625
878.41652	3876.6625
882.22745	3913.8625
886.03573	3939.6625
889.84136	3947.6625
893.64433	3908.9625
897.44466	3912.1625
901.24235	3922.3625
905.0374	3902.5625
908.8298	3888.2625
912.61957	3845.9625
916.40671	3856.0625
920.19121	3849.9625
923.97308	3882.3625
927.75233	3966.5625
931.52895	4042.6625
935.30295	4010.3625
939.07433	3913.6625
942.84309	3829.9625
946.60924	3778.1625
950.37278	3748.1625
954.13371	3727.3625
957.89203	3728.6625
961.64774	3735.1625
965.40086	3733.5625
969.15137	3717.7625
972.89929	3738.5625
976.64461	3717.0625
980.38733	3713.3625
984.12747	3721.9625
987.86502	3750.7625
991.59999	3764.2625
995.33237	3789.6625
999.06217	3824.4625
1002.78939	3886.3625
1006.51404	3976.9625
1010.23611	4033.4625
1013.95561	4038.2625
1017.67255	4034.9625
1021.38692	4014.6625
1025.09872	3963.9625
1028.80796	3936.1625
1032.51465	3962.0625
1036.21877	3963.4625
1039.92035	4011.5625
1043.61937	4048.7625
1047.31584	4081.6625
1051.00976	4079.0625
1054.70114	4082.1625
1058.38998	4071.2625
1062.07627	4090.2625
1065.76003	4088.5625
1069.44126	4097.9625
1073.11995	4127.8625
1076.79611	4197.1625
1080.46974	4324.3625
1084.14085	4479.4625
1087.80943	4605.5625
1091.47549	4643.9625
1095.13903	4572.4625
1098.80005	4452.5625
1102.45857	4364.0625
1106.11456	4356.0625
1109.76805	4444.4625
1113.41903	4599.4625
1117.06751	4819.7625
1120.71348	5091.7625
1124.35696	5363.4625
1127.99793	5571.8625
1131.63641	5483.8625
1135.2724	5154.3625
1138.90589	4884.4625
1142.5369	4707.8625
1146.16542	4583.4625
1149.79145	4474.2625
1153.415	4440.4625
1157.03607	4441.5625
1160.65467	4498.7625
1164.27079	4649.0625
1167.88443	4830.7625
1171.49561	5181.4625
1175.10432	5748.8625
1178.71056	6595.9625
1182.31434	7274.5625
1185.91565	7423.0625
1189.51451	7036.2625
1193.11091	6436.6625
1196.70485	5921.3625
1200.29634	5640.8625
1203.88538	5423.3625
1207.47197	5129.4625
1211.05612	4852.4625
1214.63782	4677.7625
1218.21708	4590.1625
1221.79391	4568.8625
1225.36829	4565.1625
1228.94024	4557.0625
1232.50976	4545.9625
1236.07685	4550.9625
1239.6415	4590.7625
1243.20374	4628.7625
1246.76355	4655.9625
1250.32093	4714.0625
1253.8759	4753.0625
1257.42845	4868.4625
1260.97859	4991.5625
1264.52631	5150.7625
1268.07163	5315.1625
1271.61453	5413.9625
1275.15503	5487.9625
1278.69312	5506.3625
1282.22882	5508.5625
1285.76211	5641.9625
1289.29301	5845.6625
1292.82151	6077.9625
1296.34761	6325.9625
1299.87133	6765.0625
1303.39266	7510.2625
1306.9116	8610.7625
1310.42815	9619.0625
1313.94233	9741.3625
1317.45412	8905.8625
1320.96354	7836.5625
1324.47058	6924.8625
1327.97525	6235.7625
1331.47754	5839.2625
1334.97747	5691.6625
1338.47502	5729.1625
1341.97022	5969.7625
1345.46305	6479.1625
1348.95352	7223.5625
1352.44163	8143.7625
1355.92738	9368.2625
1359.41078	11204.2625
1362.89183	12826.6625
1366.37053	12158.5625
1369.84688	9752.0625
1373.32088	7795.5625
1376.79254	6702.6625
1380.26186	6115.0625
1383.72883	5720.4625
1387.19347	5431.9625
1390.65578	5193.2625
1394.11575	5009.2625
1397.57339	4903.9625
1401.0287	4835.2625
1404.48168	4781.3625
1407.93234	4760.8625
1411.38068	4782.3625
1414.82669	4850.1625
1418.27039	4894.3625
1421.71177	4934.3625
1425.15083	4883.7625
1428.58758	4868.5625
1432.02203	4925.0625
1435.45416	4985.9625
1438.88399	4952.2625
1442.31151	4897.2625
1445.73673	4894.6625
1449.15965	4920.8625
1452.58027	4897.8625
1455.9986	4850.2625
1459.41463	4848.5625
1462.82837	4891.9625
1466.23982	5006.7625
1469.64898	5125.6625
1473.05586	5180.8625
1476.46045	5190.7625
1479.86276	5246.5625
1483.26279	5351.5625
1486.66054	5535.9625
1490.05602	5802.0625
1493.44922	6215.7625
1496.84016	6922.7625
1500.22882	8077.7625
1503.61521	9743.6625
1506.99934	11524.9625
1510.38121	12654.0625
1513.76081	12431.5625
1517.13816	10939.8625
1520.51324	9043.4625
1523.88607	7515.3625
1527.25665	6627.6625
1530.62498	6159.3625
1533.99105	5889.5625
1537.35488	5716.7625
1540.71647	5616.5625
1544.07581	5599.4625
1547.4329	5623.3625
1550.78776	5727.7625
1554.14038	5822.6625
1557.49077	5913.6625
1560.83892	6075.0625
1564.18484	6328.5625
1567.52853	6636.4625
1570.86999	6908.8625
1574.20922	7070.0625
1577.54624	6966.1625
1580.88103	6500.0625
1584.2136	5956.2625
1587.54395	5594.9625
1590.87208	5506.2625
1594.19801	5658.2625
1597.52172	5880.2625
1600.84321	5942.2625
1604.16251	5787.8625
1607.47959	5598.6625
1610.79447	5434.7625
1614.10715	5231.1625
1617.41763	5085.3625
1620.7259	4962.7625
1624.03199	4943.7625
1627.33587	4961.4625
1630.63757	5040.9625
1633.93707	5208.0625
1637.23439	5489.8625
1640.52951	6004.7625
1643.82246	6812.5625
1647.11321	7871.8625
1650.40179	8578.1625
1653.68819	8318.9625
1656.97241	7341.0625
1660.25446	6288.0625
1663.53433	5622.1625
1666.81203	5217.1625
1670.08756	4978.0625
1673.36092	4835.8625
1676.63211	4728.5625
1679.90115	4674.3625
1683.16801	4628.6625
1686.43272	4604.6625
1689.69527	4601.1625
1692.95567	4575.6625
1696.2139	4579.9625
1699.46999	4562.2625
1702.72392	4563.9625
1705.97571	4550.4625
1709.22535	4520.6625
1712.47284	4530.3625
1715.71819	4514.2625
1718.96139	4485.2625
1722.20246	4474.7625
1725.44139	4465.3625
1728.67818	4443.0625
1731.91284	4417.6625
1735.14537	4394.9625
1738.37576	4392.2625
1741.60403	4406.4625
1744.83017	4393.2625
1748.05418	4407.4625
1751.27607	4413.5625
1754.49584	4427.8625
1757.71349	4437.6625
1760.92903	4419.5625
1764.14244	4403.0625
1767.35375	4397.3625
1770.56294	4389.9625
1773.77002	4376.1625
1776.97499	4346.4625
1780.17785	4347.6625
1783.37861	4316.5625
1786.57727	4336.0625
1789.77382	4319.4625
1792.96828	4334.2625
1796.16064	4320.1625
1799.3509	4301.8625
1802.53907	4313.5625
1805.72514	4288.1625
1808.90913	4284.2625
1812.09102	4277.5625
1815.27083	4265.4625
1818.44856	4264.8625
1821.6242	4268.0625
1824.79776	4277.9625
1827.96924	4275.6625
1831.13864	4279.0625
1834.30597	4249.7625
1837.47122	4248.9625
1840.6344	4250.4625
1843.7955	4263.3625
1846.95454	4259.2625
1850.11151	4246.1625
1853.26642	4245.0625
1856.41926	4249.0625
1859.57004	4255.2625
1862.71876	4258.2625
1865.86542	4251.6625
1869.01003	4281.8625
1872.15258	4284.0625
1875.29308	4279.5625
1878.43152	4276.7625
1881.56792	4264.8625
1884.70227	4280.1625
1887.83457	4298.2625
1890.96482	4264.3625
1894.09304	4288.0625
1897.21921	4269.2625
1900.34335	4268.9625
1903.46544	4281.8625
1906.58551	4297.2625
1909.70353	4292.0625
1912.81953	4305.1625
1915.93349	4279.6625
1919.04543	4271.5625
1922.15534	4284.1625
1925.26322	4296.0625
1928.36908	4285.8625
1931.47292	4274.2625
1934.57473	4286.9625
1937.67453	4299.7625
1940.77232	4280.4625
1943.86808	4274.4625
1946.96184	4252.1625
1950.05358	4223.8625
1953.14331	4236.0625
1956.23103	4232.5625
1959.31675	4226.2625
1962.40046	4228.8625
1965.48217	4214.3625
1968.56188	4224.9625
1971.63959	4220.8625
1974.7153	4207.1625
1977.78901	4184.3625
1980.86073	4170.1625
1983.93046	4173.9625
1986.99819	4171.7625
1990.06394	4184.5625
1993.1277	4164.7625
1996.18947	4156.2625
1999.24925	4162.2625
2002.30706	4139.2625
2005.36288	4148.1625
2008.41672	4145.6625
2011.46859	4122.9625
2014.51848	4138.5625
2017.56639	4119.9625
2020.61233	4114.9625
2023.6563	4093.4625
2026.6983	4093.8625
2029.73833	4072.3625
2032.7764	4080.2625
2035.8125	4071.3625
2038.84664	4067.7625
2041.87881	4069.3625
2044.90903	4083.5625
2047.93729	4083.7625
2050.96359	4063.6625
2053.98794	4077.6625
2057.01034	4095.4625
2060.03078	4088.4625
2063.04927	4089.8625
2066.06582	4081.5625
2069.08042	4088.3625
2072.09307	4091.6625
2075.10378	4098.3625
2078.11255	4103.8625
2081.11938	4105.4625
2084.12426	4103.7625
2087.12722	4108.7625
2090.12824	4128.9625
2093.12732	4137.0625
2096.12447	4143.1625
2099.11969	4139.7625
2102.11299	4150.3625
2105.10435	4163.3625
2108.09379	4153.0625
2111.08131	4174.4625
2114.0669	4178.6625
2117.05057	4192.7625
2120.03233	4220.7625
2123.01216	4257.5625
2125.99008	4213.2625
2128.96609	4227.7625
2131.94018	4242.5625
2134.91236	4245.2625
2137.88263	4255.7625
2140.851	4268.5625
2143.81746	4279.7625
2146.78201	4293.5625
2149.74466	4282.1625
2152.7054	4282.1625
2155.66425	4288.2625
2158.6212	4278.1625
2161.57625	4289.6625
2164.52941	4305.2625
2167.48067	4299.3625
2170.43004	4301.3625
2173.37752	4318.4625
2176.32311	4321.4625
2179.26681	4328.7625
2182.20863	4342.4625
2185.14856	4342.5625
2188.08661	4335.4625
2191.02278	4343.8625
2193.95707	4340.7625
2196.88948	4339.8625
2199.82001	4349.2625
2202.74867	4351.4625
2205.67545	4375.4625
2208.60037	4385.4625
2211.52341	4374.8625
2214.44458	4378.9625
2217.36388	4355.4625
2220.28132	4374.7625
2223.1969	4360.1625
2226.11061	4328.9625
2229.02246	4317.5625
2231.93245	4327.4625
2234.84058	4350.4625
2237.74686	4323.8625
2240.65128	4339.1625
2243.55385	4365.7625
2246.45456	4358.4625
2249.35343	4371.7625
2252.25044	4367.3625
2255.14561	4377.4625
2258.03893	4377.9625
2260.93041	4396.5625
2263.82004	4383.0625
2266.70783	4369.7625
2269.59378	4353.9625
2272.4779	4350.4625
2275.36017	4341.9625
2278.24061	4358.2625
2281.11922	4346.9625
2283.996	4353.3625
2286.87094	4352.5625
2289.74405	4328.1625
2292.61534	4328.3625
2295.4848	4324.7625
2298.35243	4339.0625
2301.21824	4338.1625
2304.08223	4351.5625
2306.94439	4364.8625
2309.80474	4368.5625
2312.66327	4367.3625
2315.51999	4364.6625
2318.37489	4366.1625
2321.22797	4358.7625
2324.07925	4343.6625
2326.92871	4343.2625
2329.77637	4354.1625
2332.62222	4349.0625
2335.46626	4357.8625
2338.3085	4337.6625
2341.14893	4346.0625
2343.98756	4351.7625
2346.8244	4337.9625
2349.65943	4356.3625
2352.49267	4365.6625
2355.32411	4363.2625
2358.15376	4377.0625
2360.98161	4369.2625
2363.80768	4389.9625
2366.63195	4401.4625
2369.45444	4417.6625
2372.27514	4399.3625
2375.09405	4395.9625
2377.91118	4407.7625
2380.72652	4397.0625
2383.54009	4414.1625
2386.35187	4401.9625
2389.16188	4379.2625
2391.97011	4367.3625
2394.77657	4364.1625
2397.58125	4363.0625
2400.38416	4365.9625
2403.18529	4360.4625
2405.98466	4348.8625
2408.78226	4344.9625
2411.57809	4331.0625
2414.37216	4337.2625
2417.16446	4358.6625
2419.955	4369.2625
2422.74378	4365.7625
2425.5308	4370.3625
2428.31606	4369.4625
2431.09956	4376.6625
2433.88131	4390.5625
2436.6613	4402.8625
2439.43954	4394.2625
2442.21603	4379.2625
2444.99077	4377.1625
2447.76377	4371.9625
2450.53501	4372.8625
2453.30451	4369.3625
2456.07226	4375.0625
2458.83827	4380.7625
2461.60254	4398.2625
2464.36507	4403.0625
2467.12586	4385.0625
2469.88492	4380.1625
2472.64224	4393.9625
2475.39782	4410.6625
2478.15167	4408.6625
2480.90379	4404.6625
2483.65417	4414.5625
2486.40283	4429.2625
2489.14976	4433.7625
2491.89497	4446.3625
2494.63845	4453.3625
2497.3802	4460.1625
2500.12024	4450.8625
2502.85855	4451.6625
2505.59514	4442.8625
2508.33002	4433.3625
2511.06318	4433.9625
2513.79462	4415.8625
2516.52435	4388.9625
2519.25237	4392.0625
2521.97867	4393.2625
2524.70327	4386.6625
2527.42616	4396.3625
2530.14734	4389.7625
2532.86681	4383.6625
2535.58458	4393.4625
2538.30065	4416.5625
2541.01501	4428.3625
2543.72768	4414.5625
2546.43864	4422.5625
2549.14791	4408.2625
2551.85548	4393.9625
2554.56136	4392.5625
2557.26554	4385.9625
2559.96803	4411.1625
2562.66883	4401.0625
2565.36794	4386.8625
2568.06536	4369.1625
2570.7611	4367.3625
2573.45514	4357.4625
2576.14751	4354.7625
2578.83819	4344.1625
2581.52719	4350.1625
2584.21451	4365.7625
2586.90015	4354.0625
2589.58411	4356.0625
2592.2664	4379.8625
2594.94701	4375.5625
2597.62594	4363.4625
2600.30321	4363.7625
2602.9788	4355.8625
2605.65273	4358.7625
2608.32498	4359.4625
2610.99557	4370.5625
2613.66449	4387.0625
2616.33175	4375.2625
2618.99734	4367.9625
2621.66128	4350.6625
2624.32355	4347.3625
2626.98416	4346.0625
2629.64311	4337.9625
2632.30041	4334.0625
2634.95605	4336.4625
2637.61004	4325.2625
2640.26238	4329.5625
2642.91306	4328.6625
2645.56209	4333.2625
2648.20948	4330.8625
2650.85521	4317.1625
2653.4993	4321.4625
2656.14175	4340.9625
2658.78255	4355.9625
2661.42171	4360.9625
2664.05923	4353.8625
2666.6951	4375.9625
2669.32934	4388.6625
2671.96194	4388.7625
2674.59291	4390.8625
2677.22224	4406.6625
2679.84993	4393.1625
2682.476	4410.1625
2685.10043	4401.9625
2687.72324	4382.0625
2690.34441	4384.6625
2692.96396	4390.9625
2695.58188	4395.8625
2698.19818	4418.0625
2700.81285	4440.8625
2703.4259	4441.0625
2706.03733	4452.4625
2708.64714	4423.4625
2711.25533	4411.6625
2713.86191	4421.1625
2716.46687	4444.5625
2719.07021	4447.6625
2721.67194	4456.5625
2724.27206	4474.3625
2726.87057	4475.7625
2729.46747	4483.9625
2732.06276	4454.1625
2734.65644	4455.8625
2737.24852	4452.8625
2739.83899	4447.3625
2742.42786	4462.4625
2745.01513	4448.1625
2747.60079	4467.6625
2750.18486	4441.5625
2752.76733	4457.4625
2755.3482	4430.8625
2757.92747	4423.0625
2760.50515	4441.1625
2763.08123	4427.6625
2765.65573	4427.3625
2768.22863	4430.9625
2770.79994	4417.5625
2773.36967	4427.2625
2775.9378	4432.3625
2778.50435	4415.3625
2781.06932	4431.8625
2783.6327	4422.5625
2786.1945	4416.0625
2788.75471	4435.5625
2791.31335	4412.8625
2793.87041	4435.6625
2796.42589	4419.5625
2798.97979	4412.4625
2801.53212	4417.7625
2804.08288	4410.2625
2806.63206	4423.4625
2809.17967	4399.4625
2811.72571	4398.5625
2814.27018	4414.6625
2816.81308	4403.2625
2819.35442	4393.3625
2821.89419	4388.8625
2824.43239	4386.5625
2826.96904	4400.6625
2829.50412	4403.2625
2832.03763	4381.1625
2834.56959	4404.0625
2837.1	4385.2625
2839.62884	4391.6625
2842.15613	4386.3625
2844.68186	4398.2625
2847.20604	4398.7625
2849.72867	4404.7625
2852.24974	4404.6625
2854.76927	4392.7625
2857.28724	4410.0625
2859.80367	4404.9625
2862.31855	4394.7625
2864.83189	4433.8625
2867.34368	4420.4625
2869.85393	4411.0625
2872.36264	4430.8625
2874.8698	4427.2625
2877.37543	4450.3625
2879.87952	4438.2625
2882.38207	4428.0625
2884.88308	4435.3625
2887.38256	4444.1625
2889.88051	4452.6625
2892.37692	4472.0625
2894.8718	4468.0625
2897.36515	4476.5625
2899.85698	4485.7625
2902.34727	4529.0625
2904.83604	4530.0625
2907.32328	4529.3625
2909.809	4539.0625
2912.29319	4545.5625
2914.77587	4561.4625
2917.25702	4569.7625
2919.73665	4553.5625
2922.21476	4573.2625
2924.69136	4574.4625
2927.16644	4550.2625
2929.64	4540.6625
2932.11205	4563.8625
2934.58258	4570.8625
2937.05161	4568.1625
2939.51912	4591.2625
2941.98513	4597.8625
2944.44962	4612.6625
2946.91261	4569.6625
2949.37409	4565.1625
2951.83407	4580.3625
2954.29254	4595.3625
2956.74951	4576.7625
2959.20498	4559.6625
2961.65895	4551.1625
2964.11142	4557.3625
2966.56239	4539.5625
2969.01186	4546.1625
2971.45984	4555.1625
2973.90632	4558.2625
2976.35131	4535.4625
2978.7948	4544.5625
2981.23681	4543.7625
2983.67732	4541.8625
2986.11635	4544.0625
2988.55388	4539.3625
2990.98993	4530.6625
2993.4245	4514.3625
2995.85758	4506.7625
2998.28917	4501.6625
3000.71928	4512.3625
3003.14791	4532.4625
3005.57506	4503.8625
3008.00073	4475.8625
3010.42493	4462.5625
3012.84764	4495.9625
3015.26888	4488.9625
3017.68865	4486.3625
3020.10694	4480.9625
3022.52376	4485.9625
3024.9391	4493.4625
3027.35298	4476.8625
3029.76539	4466.8625
3032.17632	4467.8625
3034.5858	4465.6625
3036.9938	4448.7625
3039.40034	4468.5625
3041.80542	4477.6625
3044.20903	4482.7625
3046.61118	4483.6625
3049.01187	4485.3625
3051.4111	4471.9625
3053.80888	4468.1625
3056.20519	4468.9625
3058.60005	4475.9625
3060.99345	4505.5625
3063.3854	4487.8625
3065.7759	4463.0625
3068.16494	4449.1625
3070.55254	4427.8625
3072.93868	4422.7625
3075.32338	4437.1625
3077.70662	4406.8625
3080.08842	4421.3625
3082.46878	4424.3625
3084.84769	4430.3625
3087.22515	4446.0625
3089.60118	4456.1625
3091.97576	4437.1625
3094.3489	4436.9625
3096.72061	4448.4625
3099.09087	4472.2625
3101.4597	4490.3625
3103.82709	4500.9625
3106.19305	4504.7625
3108.55757	4532.2625
3110.92066	4505.8625
3113.28232	4529.0625
3115.64255	4513.5625
3118.00134	4520.7625
3120.35871	4538.0625
3122.71466	4511.0625
3125.06917	4503.0625
3127.42226	4498.6625
3129.77393	4515.7625
3132.12417	4532.6625
3134.47299	4541.8625
3136.82039	4537.4625
3139.16636	4546.3625
3141.51092	4532.7625
3143.85406	4567.0625
3146.19579	4558.1625
3148.53609	4576.4625
3150.87499	4589.9625
3153.21246	4607.6625
3155.54853	4612.2625
3157.88318	4621.8625
3160.21642	4623.6625
3162.54826	4640.7625
3164.87868	4652.4625
3167.2077	4677.2625
3169.5353	4689.7625
3171.86151	4686.7625
3174.18631	4692.7625
3176.5097	4694.7625
3178.83169	4705.3625
3181.15228	4694.1625
3183.47147	4688.5625
3185.78926	4684.2625
3188.10565	4692.4625
3190.42065	4702.5625
3192.73424	4708.1625
3195.04645	4698.8625
3197.35725	4692.9625
3199.66667	4688.3625
3201.97469	4700.4625
3204.28132	4720.1625
3206.58656	4755.2625
3208.8904	4750.5625
3211.19287	4738.5625
3213.49394	4746.2625
3215.79363	4751.2625
3218.09193	4775.0625
3220.38884	4791.7625
3222.68438	4809.0625
3224.97853	4814.7625
3227.2713	4813.0625
3229.56269	4815.5625
3231.8527	4808.5625
3234.14133	4805.0625
3236.42858	4799.9625
3238.71446	4810.9625
3240.99896	4795.2625
3243.28209	4787.9625
3245.56384	4787.7625
3247.84423	4781.8625
3250.12324	4779.3625
3252.40088	4766.9625
3254.67715	4760.2625
3256.95205	4770.2625
3259.22558	4789.9625
3261.49775	4790.8625
3263.76855	4794.9625
3266.03799	4793.5625
3268.30606	4796.6625
3270.57277	4799.1625
3272.83812	4794.4625
3275.10211	4778.1625
3277.36474	4795.8625
3279.62601	4776.6625
3281.88593	4776.6625
3284.14448	4785.8625
3286.40168	4780.4625
3288.65753	4771.5625
3290.91202	4747.7625
3293.16516	4734.8625
3295.41695	4739.9625
3297.66738	4710.1625
3299.91647	4710.0625
3302.16421	4701.1625
3304.4106	4697.5625
3306.65564	4671.6625
3308.89933	4635.5625
3311.14169	4585.4625
3313.38269	4579.9625
3315.62236	4530.8625
3317.86068	4506.9625
3320.09766	4474.4625
3322.3333	4440.9625
3324.5676	4429.5625
3326.80056	4366.3625
3329.03219	4324.1625
3331.26248	2.1625
3333.49143	0.8625
3335.71905	0.5625
