Data from AgNPs_UA_5uM_CRN_500uM_AS_RamanShift__13__13-12-43-834.txt Node

Date: Wed Aug 17 13:12:43 BST 2022
User: TCL
Spectrometer: QEP01345
Trigger mode: 4
Integration Time (sec): 7.000000E0
Scans to average: 10
Electric dark correction enabled: true
Nonlinearity correction enabled: false
Boxcar width: 0
XAxis mode: Raman Shifts
Number of Pixels in Spectrum: 1044
>>>>>Begin Spectral Data<<<<<
46.04893	-0.0875
50.45542	0.0125
54.85868	0.7125
59.25871	0.2125
63.6555	42.5125
68.04907	47.2125
72.43941	46.0125
76.82654	55.5125
81.21044	58.3125
85.59113	60.3125
89.96862	64.8125
94.34289	63.6125
98.71396	70.8125
103.08183	70.8125
107.4465	71.1125
111.80798	72.5125
116.16626	74.4125
120.52136	72.6125
124.87327	72.9125
129.222	69.1125
133.56755	74.0125
137.90993	76.3125
142.24913	76.3125
146.58517	73.5125
150.91804	77.3125
155.24774	82.1125
159.57429	89.1125
163.89768	99.1125
168.21792	122.1125
172.53501	144.1125
176.84895	186.8125
181.15975	242.8125
185.46741	327.2125
189.77193	437.5125
194.07331	584.9125
198.37157	770.7125
202.6667	968.8125
206.9587	1161.9125
211.24758	1380.8125
215.53334	1586.2125
219.81599	1804.8125
224.09553	2034.1125
228.37195	2244.9125
232.64527	2470.0125
236.91549	2668.7125
241.18261	2884.5125
245.44663	3074.0125
249.70755	3216.7125
253.96539	3334.8125
258.22014	3390.7125
262.4718	3385.5125
266.72039	3349.5125
270.96589	3270.1125
275.20832	3149.2125
279.44768	3005.6125
283.68397	2873.4125
287.91719	2733.2125
292.14735	2606.5125
296.37445	2473.6125
300.59849	2369.2125
304.81948	2295.2125
309.03742	2241.4125
313.25231	2176.9125
317.46415	2147.5125
321.67296	2105.9125
325.87872	2073.3125
330.08145	2059.8125
334.28114	2045.8125
338.47781	2055.7125
342.67145	2068.0125
346.86207	2073.9125
351.04966	2068.4125
355.23424	2078.0125
359.4158	2080.4125
363.59435	2078.4125
367.76989	2064.7125
371.94243	2059.4125
376.11196	2062.1125
380.27849	2054.7125
384.44203	2068.9125
388.60257	2054.8125
392.76012	2057.2125
396.91468	2062.7125
401.06626	2087.6125
405.21485	2091.6125
409.36047	2092.6125
413.50311	2104.7125
417.64277	2106.5125
421.77947	2119.0125
425.9132	2125.1125
430.04396	2147.5125
434.17176	2154.9125
438.2966	2159.4125
442.41849	2186.3125
446.53742	2202.2125
450.6534	2218.7125
454.76644	2219.8125
458.87653	2236.8125
462.98368	2245.7125
467.08789	2245.3125
471.18916	2259.4125
475.2875	2264.3125
479.38291	2274.6125
483.4754	2277.7125
487.56496	2287.6125
491.6516	2287.9125
495.73531	2294.8125
499.81612	2314.0125
503.89401	2319.7125
507.96899	2308.6125
512.04106	2316.6125
516.11023	2306.8125
520.1765	2296.1125
524.23987	2297.8125
528.30034	2301.6125
532.35792	2308.2125
536.41261	2305.8125
540.46441	2305.3125
544.51333	2303.9125
548.55936	2312.0125
552.60252	2325.0125
556.64279	2331.0125
560.6802	2349.7125
564.71473	2351.2125
568.7464	2376.1125
572.7752	2392.0125
576.80114	2390.7125
580.82422	2400.6125
584.84444	2379.6125
588.86181	2383.4125
592.87633	2395.0125
596.888	2396.9125
600.89682	2419.8125
604.9028	2459.5125
608.90594	2492.7125
612.90624	2540.6125
616.90371	2536.7125
620.89834	2496.5125
624.89015	2488.0125
628.87913	2492.5125
632.86528	2499.0125
636.84862	2504.8125
640.82913	2506.0125
644.80683	2532.7125
648.78172	2558.1125
652.75379	2584.3125
656.72306	2597.9125
660.68952	2602.6125
664.65319	2646.9125
668.61405	2743.6125
672.57211	2899.9125
676.52738	3149.4125
680.47986	3382.3125
684.42955	3501.2125
688.37646	3469.2125
692.32058	3357.3125
696.26192	3227.4125
700.20048	3129.6125
704.13626	3041.1125
708.06928	2967.8125
711.99952	2896.0125
715.927	2831.0125
719.85171	2777.4125
723.77365	2775.2125
727.69284	2768.4125
731.60928	2778.2125
735.52295	2757.5125
739.43388	2715.0125
743.34206	2717.3125
747.24749	2710.2125
751.15017	2725.5125
755.05012	2745.0125
758.94733	2757.9125
762.8418	2777.0125
766.73354	2768.4125
770.62254	2755.7125
774.50882	2726.5125
778.39237	2688.8125
782.27321	2669.5125
786.15132	2658.7125
790.02671	2641.7125
793.89938	2633.0125
797.76935	2640.1125
801.6366	2652.4125
805.50115	2646.9125
809.36299	2637.4125
813.22213	2634.9125
817.07857	2641.4125
820.93231	2632.8125
824.78336	2621.3125
828.63172	2638.5125
832.47738	2632.7125
836.32036	2632.9125
840.16066	2632.3125
843.99827	2642.9125
847.8332	2639.7125
851.66546	2640.7125
855.49504	2667.2125
859.32195	2666.2125
863.1462	2674.9125
866.96777	2688.3125
870.78668	2704.3125
874.60293	2729.9125
878.41652	2744.7125
882.22745	2746.7125
886.03573	2738.0125
889.84136	2747.0125
893.64433	2745.2125
897.44466	2743.2125
901.24235	2762.3125
905.0374	2768.1125
908.8298	2772.3125
912.61957	2789.9125
916.40671	2780.8125
920.19121	2789.5125
923.97308	2807.9125
927.75233	2806.9125
931.52895	2813.5125
935.30295	2790.2125
939.07433	2785.5125
942.84309	2784.7125
946.60924	2749.7125
950.37278	2751.1125
954.13371	2732.6125
957.89203	2742.1125
961.64774	2737.1125
965.40086	2740.8125
969.15137	2722.1125
972.89929	2718.1125
976.64461	2702.7125
980.38733	2686.0125
984.12747	2690.0125
987.86502	2678.7125
991.59999	2666.7125
995.33237	2691.4125
999.06217	2681.1125
1002.78939	2691.7125
1006.51404	2692.1125
1010.23611	2690.2125
1013.95561	2700.7125
1017.67255	2716.7125
1021.38692	2707.7125
1025.09872	2712.2125
1028.80796	2716.5125
1032.51465	2747.9125
1036.21877	2769.8125
1039.92035	2773.6125
1043.61937	2809.3125
1047.31584	2848.3125
1051.00976	2864.6125
1054.70114	2883.8125
1058.38998	2868.5125
1062.07627	2857.6125
1065.76003	2818.4125
1069.44126	2796.0125
1073.11995	2757.1125
1076.79611	2738.6125
1080.46974	2735.2125
1084.14085	2731.3125
1087.80943	2705.6125
1091.47549	2710.4125
1095.13903	2712.1125
1098.80005	2687.4125
1102.45857	2698.1125
1106.11456	2693.9125
1109.76805	2699.5125
1113.41903	2683.0125
1117.06751	2688.4125
1120.71348	2697.9125
1124.35696	2702.4125
1127.99793	2703.6125
1131.63641	2717.1125
1135.2724	2713.1125
1138.90589	2714.7125
1142.5369	2712.3125
1146.16542	2712.7125
1149.79145	2712.2125
1153.415	2701.9125
1157.03607	2712.1125
1160.65467	2708.0125
1164.27079	2721.6125
1167.88443	2715.7125
1171.49561	2731.5125
1175.10432	2731.5125
1178.71056	2737.7125
1182.31434	2740.3125
1185.91565	2746.1125
1189.51451	2755.1125
1193.11091	2748.7125
1196.70485	2747.5125
1200.29634	2744.1125
1203.88538	2746.8125
1207.47197	2730.0125
1211.05612	2725.2125
1214.63782	2719.4125
1218.21708	2733.5125
1221.79391	2733.1125
1225.36829	2747.1125
1228.94024	2748.1125
1232.50976	2762.7125
1236.07685	2778.1125
1239.6415	2807.6125
1243.20374	2833.8125
1246.76355	2857.9125
1250.32093	2894.5125
1253.8759	2919.0125
1257.42845	2934.7125
1260.97859	2915.9125
1264.52631	2915.1125
1268.07163	2896.1125
1271.61453	2883.5125
1275.15503	2868.4125
1278.69312	2876.3125
1282.22882	2864.9125
1285.76211	2865.6125
1289.29301	2866.0125
1292.82151	2862.6125
1296.34761	2861.2125
1299.87133	2877.3125
1303.39266	2884.6125
1306.9116	2884.8125
1310.42815	2904.0125
1313.94233	2920.9125
1317.45412	2916.0125
1320.96354	2918.6125
1324.47058	2905.1125
1327.97525	2908.6125
1331.47754	2895.6125
1334.97747	2897.0125
1338.47502	2900.4125
1341.97022	2916.4125
1345.46305	2955.2125
1348.95352	2972.3125
1352.44163	2996.1125
1355.92738	3028.5125
1359.41078	3063.0125
1362.89183	3067.2125
1366.37053	3071.8125
1369.84688	3047.1125
1373.32088	3016.6125
1376.79254	2988.0125
1380.26186	2966.5125
1383.72883	2949.9125
1387.19347	2925.5125
1390.65578	2898.0125
1394.11575	2883.4125
1397.57339	2879.6125
1401.0287	2879.2125
1404.48168	2893.0125
1407.93234	2918.1125
1411.38068	2938.1125
1414.82669	2946.0125
1418.27039	2942.6125
1421.71177	2959.0125
1425.15083	2916.8125
1428.58758	2871.5125
1432.02203	2843.2125
1435.45416	2821.0125
1438.88399	2811.5125
1442.31151	2794.4125
1445.73673	2797.2125
1449.15965	2825.1125
1452.58027	2815.1125
1455.9986	2834.0125
1459.41463	2843.9125
1462.82837	2845.1125
1466.23982	2855.9125
1469.64898	2848.2125
1473.05586	2842.7125
1476.46045	2813.0125
1479.86276	2784.7125
1483.26279	2759.3125
1486.66054	2728.3125
1490.05602	2748.8125
1493.44922	2743.8125
1496.84016	2743.6125
1500.22882	2765.7125
1503.61521	2771.7125
1506.99934	2778.9125
1510.38121	2800.1125
1513.76081	2798.3125
1517.13816	2786.8125
1520.51324	2784.0125
1523.88607	2770.7125
1527.25665	2770.0125
1530.62498	2770.0125
1533.99105	2767.3125
1537.35488	2773.0125
1540.71647	2792.7125
1544.07581	2778.3125
1547.4329	2800.7125
1550.78776	2810.7125
1554.14038	2818.3125
1557.49077	2818.6125
1560.83892	2831.6125
1564.18484	2835.2125
1567.52853	2838.4125
1570.86999	2842.9125
1574.20922	2849.9125
1577.54624	2833.3125
1580.88103	2833.6125
1584.2136	2813.5125
1587.54395	2821.5125
1590.87208	2818.2125
1594.19801	2825.5125
1597.52172	2831.1125
1600.84321	2829.6125
1604.16251	2814.4125
1607.47959	2810.2125
1610.79447	2805.3125
1614.10715	2793.3125
1617.41763	2785.8125
1620.7259	2765.5125
1624.03199	2756.8125
1627.33587	2728.6125
1630.63757	2730.8125
1633.93707	2722.1125
1637.23439	2712.9125
1640.52951	2715.2125
1643.82246	2727.8125
1647.11321	2737.7125
1650.40179	2749.7125
1653.68819	2753.0125
1656.97241	2731.7125
1660.25446	2724.7125
1663.53433	2720.3125
1666.81203	2714.2125
1670.08756	2707.7125
1673.36092	2716.9125
1676.63211	2716.3125
1679.90115	2726.6125
1683.16801	2724.6125
1686.43272	2726.8125
1689.69527	2734.9125
1692.95567	2722.7125
1696.2139	2737.2125
1699.46999	2726.8125
1702.72392	2719.0125
1705.97571	2732.7125
1709.22535	2718.1125
1712.47284	2706.7125
1715.71819	2694.7125
1718.96139	2689.9125
1722.20246	2658.6125
1725.44139	2674.9125
1728.67818	2663.7125
1731.91284	2652.7125
1735.14537	2657.0125
1738.37576	2663.6125
1741.60403	2679.2125
1744.83017	2713.0125
1748.05418	2766.2125
1751.27607	2852.8125
1754.49584	2939.0125
1757.71349	3043.4125
1760.92903	3091.7125
1764.14244	3115.4125
1767.35375	3057.4125
1770.56294	2993.4125
1773.77002	2901.2125
1776.97499	2831.3125
1780.17785	2768.9125
1783.37861	2722.1125
1786.57727	2671.0125
1789.77382	2643.3125
1792.96828	2587.1125
1796.16064	2547.8125
1799.3509	2511.1125
1802.53907	2468.4125
1805.72514	2460.3125
1808.90913	2426.4125
1812.09102	2404.3125
1815.27083	2402.2125
1818.44856	2384.5125
1821.6242	2365.3125
1824.79776	2381.8125
1827.96924	2353.2125
1831.13864	2350.2125
1834.30597	2346.6125
1837.47122	2329.6125
1840.6344	2333.1125
1843.7955	2337.9125
1846.95454	2332.5125
1850.11151	2318.9125
1853.26642	2311.2125
1856.41926	2315.4125
1859.57004	2317.1125
1862.71876	2308.1125
1865.86542	2304.5125
1869.01003	2312.7125
1872.15258	2315.9125
1875.29308	2311.7125
1878.43152	2317.4125
1881.56792	2313.9125
1884.70227	2299.4125
1887.83457	2302.3125
1890.96482	2309.4125
1894.09304	2294.0125
1897.21921	2300.5125
1900.34335	2305.6125
1903.46544	2305.1125
1906.58551	2303.5125
1909.70353	2295.2125
1912.81953	2301.9125
1915.93349	2289.2125
1919.04543	2309.7125
1922.15534	2317.0125
1925.26322	2313.2125
1928.36908	2314.5125
1931.47292	2311.4125
1934.57473	2316.9125
1937.67453	2306.4125
1940.77232	2309.3125
1943.86808	2294.6125
1946.96184	2305.9125
1950.05358	2293.0125
1953.14331	2293.9125
1956.23103	2278.0125
1959.31675	2276.0125
1962.40046	2269.8125
1965.48217	2258.6125
1968.56188	2243.0125
1971.63959	2226.8125
1974.7153	2222.0125
1977.78901	2219.2125
1980.86073	2203.1125
1983.93046	2208.9125
1986.99819	2192.3125
1990.06394	2183.5125
1993.1277	2170.4125
1996.18947	2168.2125
1999.24925	2159.0125
2002.30706	2159.6125
2005.36288	2153.4125
2008.41672	2136.7125
2011.46859	2141.1125
2014.51848	2138.9125
2017.56639	2121.9125
2020.61233	2123.8125
2023.6563	2116.0125
2026.6983	2103.1125
2029.73833	2100.3125
2032.7764	2094.8125
2035.8125	2083.1125
2038.84664	2081.5125
2041.87881	2077.3125
2044.90903	2067.0125
2047.93729	2068.9125
2050.96359	2071.1125
2053.98794	2075.1125
2057.01034	2080.9125
2060.03078	2078.1125
2063.04927	2073.3125
2066.06582	2084.3125
2069.08042	2070.3125
2072.09307	2068.5125
2075.10378	2073.3125
2078.11255	2077.5125
2081.11938	2063.6125
2084.12426	2073.9125
2087.12722	2072.0125
2090.12824	2083.0125
2093.12732	2082.3125
2096.12447	2082.9125
2099.11969	2078.1125
2102.11299	2084.4125
2105.10435	2071.5125
2108.09379	2080.9125
2111.08131	2078.5125
2114.0669	2086.3125
2117.05057	2084.6125
2120.03233	2080.8125
2123.01216	2096.7125
2125.99008	2087.5125
2128.96609	2102.4125
2131.94018	2092.4125
2134.91236	2104.2125
2137.88263	2095.4125
2140.851	2096.6125
2143.81746	2097.5125
2146.78201	2092.8125
2149.74466	2100.2125
2152.7054	2093.5125
2155.66425	2098.7125
2158.6212	2101.6125
2161.57625	2101.6125
2164.52941	2097.2125
2167.48067	2095.9125
2170.43004	2086.2125
2173.37752	2077.5125
2176.32311	2080.5125
2179.26681	2085.6125
2182.20863	2091.3125
2185.14856	2078.8125
2188.08661	2079.4125
2191.02278	2075.0125
2193.95707	2087.8125
2196.88948	2076.8125
2199.82001	2081.9125
2202.74867	2072.7125
2205.67545	2073.8125
2208.60037	2065.8125
2211.52341	2061.1125
2214.44458	2066.6125
2217.36388	2057.7125
2220.28132	2052.4125
2223.1969	2038.1125
2226.11061	2043.6125
2229.02246	2040.7125
2231.93245	2032.4125
2234.84058	2034.0125
2237.74686	2036.6125
2240.65128	2032.4125
2243.55385	2020.8125
2246.45456	2023.2125
2249.35343	2024.5125
2252.25044	2015.8125
2255.14561	2010.9125
2258.03893	2021.0125
2260.93041	2009.5125
2263.82004	2005.9125
2266.70783	1997.9125
2269.59378	1991.6125
2272.4779	1990.6125
2275.36017	1978.7125
2278.24061	1977.2125
2281.11922	1967.5125
2283.996	1975.5125
2286.87094	1980.2125
2289.74405	1960.0125
2292.61534	1960.9125
2295.4848	1960.0125
2298.35243	1959.7125
2301.21824	1965.5125
2304.08223	1957.7125
2306.94439	1940.8125
2309.80474	1948.9125
2312.66327	1954.2125
2315.51999	1946.4125
2318.37489	1943.5125
2321.22797	1932.1125
2324.07925	1940.5125
2326.92871	1936.1125
2329.77637	1930.8125
2332.62222	1935.4125
2335.46626	1928.0125
2338.3085	1917.1125
2341.14893	1919.7125
2343.98756	1923.5125
2346.8244	1921.5125
2349.65943	1917.3125
2352.49267	1911.6125
2355.32411	1907.6125
2358.15376	1904.4125
2360.98161	1917.7125
2363.80768	1907.9125
2366.63195	1915.7125
2369.45444	1905.0125
2372.27514	1912.5125
2375.09405	1890.4125
2377.91118	1897.7125
2380.72652	1901.1125
2383.54009	1894.2125
2386.35187	1901.8125
2389.16188	1893.5125
2391.97011	1880.9125
2394.77657	1883.3125
2397.58125	1882.0125
2400.38416	1882.6125
2403.18529	1871.0125
2405.98466	1874.0125
2408.78226	1872.2125
2411.57809	1872.7125
2414.37216	1859.4125
2417.16446	1861.0125
2419.955	1857.0125
2422.74378	1867.1125
2425.5308	1863.2125
2428.31606	1853.1125
2431.09956	1849.4125
2433.88131	1840.6125
2436.6613	1850.3125
2439.43954	1849.1125
2442.21603	1840.3125
2444.99077	1830.3125
2447.76377	1830.4125
2450.53501	1851.1125
2453.30451	1830.4125
2456.07226	1829.8125
2458.83827	1825.1125
2461.60254	1831.5125
2464.36507	1831.8125
2467.12586	1826.7125
2469.88492	1813.9125
2472.64224	1827.4125
2475.39782	1824.4125
2478.15167	1822.0125
2480.90379	1819.9125
2483.65417	1814.3125
2486.40283	1812.8125
2489.14976	1815.2125
2491.89497	1811.1125
2494.63845	1806.8125
2497.3802	1805.9125
2500.12024	1803.7125
2502.85855	1814.1125
2505.59514	1808.8125
2508.33002	1802.4125
2511.06318	1801.1125
2513.79462	1790.9125
2516.52435	1788.1125
2519.25237	1788.7125
2521.97867	1783.7125
2524.70327	1795.3125
2527.42616	1782.5125
2530.14734	1788.5125
2532.86681	1776.5125
2535.58458	1774.6125
2538.30065	1780.5125
2541.01501	1774.0125
2543.72768	1768.3125
2546.43864	1769.2125
2549.14791	1767.5125
2551.85548	1768.6125
2554.56136	1757.4125
2557.26554	1766.6125
2559.96803	1748.7125
2562.66883	1744.2125
2565.36794	1746.3125
2568.06536	1755.4125
2570.7611	1741.4125
2573.45514	1740.5125
2576.14751	1731.8125
2578.83819	1738.1125
2581.52719	1723.5125
2584.21451	1732.8125
2586.90015	1724.4125
2589.58411	1731.3125
2592.2664	1723.5125
2594.94701	1714.0125
2597.62594	1718.7125
2600.30321	1709.5125
2602.9788	1710.2125
2605.65273	1705.6125
2608.32498	1699.5125
2610.99557	1704.0125
2613.66449	1701.2125
2616.33175	1699.1125
2618.99734	1698.1125
2621.66128	1696.1125
2624.32355	1684.5125
2626.98416	1682.7125
2629.64311	1690.4125
2632.30041	1682.1125
2634.95605	1676.8125
2637.61004	1681.4125
2640.26238	1679.6125
2642.91306	1680.9125
2645.56209	1677.5125
2648.20948	1680.4125
2650.85521	1668.8125
2653.4993	1677.6125
2656.14175	1670.9125
2658.78255	1660.4125
2661.42171	1682.2125
2664.05923	1674.8125
2666.6951	1683.9125
2669.32934	1674.3125
2671.96194	1674.3125
2674.59291	1679.1125
2677.22224	1671.3125
2679.84993	1675.5125
2682.476	1661.3125
2685.10043	1676.4125
2687.72324	1659.4125
2690.34441	1661.4125
2692.96396	1675.2125
2695.58188	1667.2125
2698.19818	1661.7125
2700.81285	1679.0125
2703.4259	1664.1125
2706.03733	1670.8125
2708.64714	1671.7125
2711.25533	1665.7125
2713.86191	1669.2125
2716.46687	1670.5125
2719.07021	1662.8125
2721.67194	1668.1125
2724.27206	1676.8125
2726.87057	1672.7125
2729.46747	1672.2125
2732.06276	1669.1125
2734.65644	1691.5125
2737.24852	1658.2125
2739.83899	1658.8125
2742.42786	1669.9125
2745.01513	1663.5125
2747.60079	1659.4125
2750.18486	1665.6125
2752.76733	1651.5125
2755.3482	1671.9125
2757.92747	1651.2125
2760.50515	1656.8125
2763.08123	1641.7125
2765.65573	1643.8125
2768.22863	1656.4125
2770.79994	1636.0125
2773.36967	1640.7125
2775.9378	1648.3125
2778.50435	1637.8125
2781.06932	1642.3125
2783.6327	1634.9125
2786.1945	1634.0125
2788.75471	1638.1125
2791.31335	1634.5125
2793.87041	1640.5125
2796.42589	1627.0125
2798.97979	1636.9125
2801.53212	1632.8125
2804.08288	1620.0125
2806.63206	1627.3125
2809.17967	1623.7125
2811.72571	1622.0125
2814.27018	1627.5125
2816.81308	1611.8125
2819.35442	1614.6125
2821.89419	1607.6125
2824.43239	1617.1125
2826.96904	1611.8125
2829.50412	1611.2125
2832.03763	1615.3125
2834.56959	1606.1125
2837.1	1603.7125
2839.62884	1603.3125
2842.15613	1620.4125
2844.68186	1609.1125
2847.20604	1605.7125
2849.72867	1617.2125
2852.24974	1621.9125
2854.76927	1622.6125
2857.28724	1610.1125
2859.80367	1610.7125
2862.31855	1615.8125
2864.83189	1611.4125
2867.34368	1601.4125
2869.85393	1606.9125
2872.36264	1612.3125
2874.8698	1614.4125
2877.37543	1614.4125
2879.87952	1623.3125
2882.38207	1619.5125
2884.88308	1630.0125
2887.38256	1644.3125
2889.88051	1640.1125
2892.37692	1645.7125
2894.8718	1658.1125
2897.36515	1659.0125
2899.85698	1660.6125
2902.34727	1691.2125
2904.83604	1695.5125
2907.32328	1696.0125
2909.809	1710.6125
2912.29319	1708.0125
2914.77587	1722.9125
2917.25702	1726.8125
2919.73665	1736.4125
2922.21476	1753.4125
2924.69136	1750.1125
2927.16644	1770.4125
2929.64	1774.2125
2932.11205	1769.0125
2934.58258	1788.7125
2937.05161	1795.3125
2939.51912	1809.5125
2941.98513	1827.9125
2944.44962	1847.2125
2946.91261	1853.9125
2949.37409	1864.1125
2951.83407	1875.5125
2954.29254	1879.5125
2956.74951	1875.7125
2959.20498	1859.3125
2961.65895	1850.4125
2964.11142	1827.2125
2966.56239	1808.9125
2969.01186	1799.9125
2971.45984	1766.4125
2973.90632	1742.3125
2976.35131	1749.6125
2978.7948	1732.6125
2981.23681	1712.8125
2983.67732	1717.7125
2986.11635	1710.9125
2988.55388	1698.8125
2990.98993	1689.3125
2993.4245	1692.2125
2995.85758	1686.4125
2998.28917	1684.9125
3000.71928	1687.0125
3003.14791	1689.5125
3005.57506	1695.2125
3008.00073	1676.8125
3010.42493	1692.3125
3012.84764	1681.3125
3015.26888	1682.8125
3017.68865	1683.0125
3020.10694	1682.8125
3022.52376	1692.0125
3024.9391	1677.9125
3027.35298	1677.8125
3029.76539	1681.5125
3032.17632	1668.1125
3034.5858	1668.2125
3036.9938	1664.7125
3039.40034	1662.7125
3041.80542	1664.8125
3044.20903	1658.6125
3046.61118	1661.7125
3049.01187	1657.5125
3051.4111	1655.5125
3053.80888	1653.9125
3056.20519	1650.8125
3058.60005	1645.6125
3060.99345	1649.5125
3063.3854	1649.4125
3065.7759	1642.8125
3068.16494	1655.8125
3070.55254	1644.6125
3072.93868	1650.4125
3075.32338	1646.3125
3077.70662	1652.2125
3080.08842	1660.7125
3082.46878	1658.3125
3084.84769	1665.3125
3087.22515	1670.9125
3089.60118	1681.5125
3091.97576	1690.4125
3094.3489	1688.4125
3096.72061	1683.1125
3099.09087	1710.5125
3101.4597	1722.6125
3103.82709	1720.7125
3106.19305	1732.9125
3108.55757	1730.8125
3110.92066	1742.7125
3113.28232	1751.3125
3115.64255	1756.9125
3118.00134	1754.9125
3120.35871	1754.4125
3122.71466	1771.3125
3125.06917	1765.7125
3127.42226	1769.5125
3129.77393	1774.3125
3132.12417	1794.3125
3134.47299	1797.0125
3136.82039	1811.9125
3139.16636	1810.1125
3141.51092	1823.9125
3143.85406	1825.4125
3146.19579	1839.3125
3148.53609	1839.7125
3150.87499	1857.2125
3153.21246	1861.3125
3155.54853	1880.2125
3157.88318	1887.7125
3160.21642	1901.5125
3162.54826	1915.3125
3164.87868	1910.9125
3167.2077	1929.0125
3169.5353	1950.9125
3171.86151	1948.4125
3174.18631	1955.1125
3176.5097	1965.7125
3178.83169	1972.8125
3181.15228	1978.7125
3183.47147	1990.5125
3185.78926	1988.4125
3188.10565	2002.0125
3190.42065	2002.5125
3192.73424	2007.6125
3195.04645	2008.2125
3197.35725	2015.5125
3199.66667	2030.2125
3201.97469	2025.0125
3204.28132	2032.9125
3206.58656	2040.6125
3208.8904	2052.3125
3211.19287	2058.9125
3213.49394	2059.6125
3215.79363	2067.6125
3218.09193	2066.4125
3220.38884	2076.5125
3222.68438	2099.7125
3224.97853	2090.7125
3227.2713	2084.7125
3229.56269	2105.1125
3231.8527	2105.1125
3234.14133	2090.3125
3236.42858	2101.6125
3238.71446	2102.8125
3240.99896	2105.9125
3243.28209	2103.6125
3245.56384	2104.7125
3247.84423	2083.6125
3250.12324	2088.4125
3252.40088	2101.6125
3254.67715	2099.1125
3256.95205	2103.8125
3259.22558	2100.9125
3261.49775	2106.9125
3263.76855	2104.6125
3266.03799	2117.0125
3268.30606	2107.6125
3270.57277	2111.8125
3272.83812	2096.0125
3275.10211	2100.5125
3277.36474	2099.1125
3279.62601	2112.5125
3281.88593	2097.1125
3284.14448	2114.6125
3286.40168	2102.7125
3288.65753	2095.7125
3290.91202	2084.4125
3293.16516	2095.7125
3295.41695	2095.9125
3297.66738	2087.8125
3299.91647	2084.7125
3302.16421	2070.3125
3304.4106	2053.8125
3306.65564	2047.4125
3308.89933	2026.3125
3311.14169	2018.1125
3313.38269	2000.9125
3315.62236	1993.7125
3317.86068	1978.9125
3320.09766	1968.4125
3322.3333	1954.0125
3324.5676	1933.4125
3326.80056	1897.3125
3329.03219	1890.6125
3331.26248	0.8125
3333.49143	-1.2875
3335.71905	-0.2875
