Data from AgNPs_UA_50uM_CRN_500uM_AS_RamanShift__25__15-34-41-571.txt Node

Date: Wed Aug 17 15:34:41 BST 2022
User: TCL
Spectrometer: QEP01345
Trigger mode: 4
Integration Time (sec): 7.000000E0
Scans to average: 10
Electric dark correction enabled: true
Nonlinearity correction enabled: false
Boxcar width: 0
XAxis mode: Raman Shifts
Number of Pixels in Spectrum: 1044
>>>>>Begin Spectral Data<<<<<
46.04893	-1.275
50.45542	-0.275
54.85868	-2.175
59.25871	-0.375
63.6555	31.725
68.04907	28.925
72.43941	34.125
76.82654	36.825
81.21044	36.825
85.59113	38.025
89.96862	36.825
94.34289	47.225
98.71396	46.525
103.08183	44.625
107.4465	46.825
111.80798	46.425
116.16626	46.525
120.52136	41.525
124.87327	45.025
129.222	51.125
133.56755	51.125
137.90993	54.525
142.24913	61.425
146.58517	62.625
150.91804	69.125
155.24774	76.925
159.57429	87.825
163.89768	108.325
168.21792	140.825
172.53501	190.825
176.84895	258.825
181.15975	358.025
185.46741	494.825
189.77193	684.525
194.07331	909.525
198.37157	1173.125
202.6667	1455.925
206.9587	1735.225
211.24758	2059.125
215.53334	2395.125
219.81599	2791.425
224.09553	3255.325
228.37195	3749.225
232.64527	4238.625
236.91549	4708.325
241.18261	5083.525
245.44663	5281.225
249.70755	5433.925
253.96539	5550.825
258.22014	5681.425
262.4718	5807.425
266.72039	5844.025
270.96589	5802.625
275.20832	5642.425
279.44768	5402.725
283.68397	5211.525
287.91719	5109.125
292.14735	5175.325
296.37445	5463.125
300.59849	5984.625
304.81948	6574.925
309.03742	6957.025
313.25231	7000.525
317.46415	6472.925
321.67296	5645.025
325.87872	5035.025
330.08145	4747.425
334.28114	4764.525
338.47781	4933.525
342.67145	5162.125
346.86207	5509.325
351.04966	6106.125
355.23424	6802.125
359.4158	7303.925
363.59435	7509.325
367.76989	7492.125
371.94243	7369.425
376.11196	7206.725
380.27849	7064.225
384.44203	6857.325
388.60257	6622.925
392.76012	6485.525
396.91468	6479.925
401.06626	6651.425
405.21485	6699.925
409.36047	6369.825
413.50311	5743.525
417.64277	5173.725
421.77947	4826.225
425.9132	4661.025
430.04396	4617.625
434.17176	4644.725
438.2966	4739.725
442.41849	4888.025
446.53742	5042.525
450.6534	5153.625
454.76644	5176.925
458.87653	5149.925
462.98368	5046.325
467.08789	4950.725
471.18916	4822.925
475.2875	4687.825
479.38291	4561.125
483.4754	4463.325
487.56496	4399.525
491.6516	4394.025
495.73531	4393.825
499.81612	4430.125
503.89401	4541.025
507.96899	4673.325
512.04106	4890.225
516.11023	5092.725
520.1765	5226.625
524.23987	5226.925
528.30034	5129.325
532.35792	5024.425
536.41261	4889.425
540.46441	4726.825
544.51333	4640.625
548.55936	4681.425
552.60252	4861.425
556.64279	5044.425
560.6802	5151.725
564.71473	5434.925
568.7464	5842.025
572.7752	5854.625
576.80114	5288.025
580.82422	4769.325
584.84444	4542.025
588.86181	4489.325
592.87633	4510.925
596.888	4669.025
600.89682	5151.925
604.9028	6675.725
608.90594	10403.125
612.90624	14482.425
616.90371	12819.025
620.89834	7618.525
624.89015	5454.825
628.87913	5114.925
632.86528	5350.925
636.84862	5602.725
640.82913	5408.725
644.80683	4923.625
648.78172	4612.525
652.75379	4678.025
656.72306	5074.225
660.68952	5444.425
664.65319	5196.025
668.61405	4683.125
672.57211	4492.525
676.52738	4509.825
680.47986	4525.625
684.42955	4444.325
688.37646	4388.225
692.32058	4384.325
696.26192	4413.825
700.20048	4509.525
704.13626	4552.125
708.06928	4513.625
711.99952	4453.625
715.927	4474.725
719.85171	4526.325
723.77365	4595.725
727.69284	4600.625
731.60928	4526.925
735.52295	4517.125
739.43388	4517.925
743.34206	4560.225
747.24749	4570.025
751.15017	4585.425
755.05012	4729.425
758.94733	5243.625
762.8418	6546.225
766.73354	8550.125
770.62254	10284.525
774.50882	10949.325
778.39237	10181.225
782.27321	8186.625
786.15132	6311.725
790.02671	5271.525
793.89938	4844.425
797.76935	4661.225
801.6366	4592.025
805.50115	4567.225
809.36299	4567.425
813.22213	4564.425
817.07857	4537.025
820.93231	4529.925
824.78336	4561.625
828.63172	4587.725
832.47738	4610.625
836.32036	4560.725
840.16066	4481.525
843.99827	4433.925
847.8332	4424.125
851.66546	4426.125
855.49504	4436.125
859.32195	4455.125
863.1462	4463.525
866.96777	4441.625
870.78668	4455.625
874.60293	4499.625
878.41652	4545.725
882.22745	4586.925
886.03573	4649.325
889.84136	4651.725
893.64433	4625.725
897.44466	4632.825
901.24235	4624.725
905.0374	4575.525
908.8298	4512.225
912.61957	4470.325
916.40671	4455.025
920.19121	4481.325
923.97308	4526.425
927.75233	4680.925
931.52895	4856.125
935.30295	4793.825
939.07433	4559.225
942.84309	4394.425
946.60924	4278.325
950.37278	4233.225
954.13371	4215.825
957.89203	4210.925
961.64774	4227.325
965.40086	4215.925
969.15137	4203.625
972.89929	4191.325
976.64461	4188.525
980.38733	4183.925
984.12747	4208.225
987.86502	4225.725
991.59999	4262.825
995.33237	4289.325
999.06217	4361.525
1002.78939	4462.625
1006.51404	4605.625
1010.23611	4715.125
1013.95561	4703.025
1017.67255	4652.525
1021.38692	4611.125
1025.09872	4545.525
1028.80796	4497.625
1032.51465	4490.525
1036.21877	4542.125
1039.92035	4598.825
1043.61937	4647.025
1047.31584	4687.725
1051.00976	4719.125
1054.70114	4698.225
1058.38998	4689.625
1062.07627	4684.825
1065.76003	4684.225
1069.44126	4700.525
1073.11995	4758.425
1076.79611	4894.825
1080.46974	5139.325
1084.14085	5465.325
1087.80943	5712.525
1091.47549	5778.525
1095.13903	5608.625
1098.80005	5329.925
1102.45857	5162.525
1106.11456	5174.625
1109.76805	5335.225
1113.41903	5646.325
1117.06751	6112.925
1120.71348	6723.425
1124.35696	7347.325
1127.99793	7710.025
1131.63641	7370.125
1135.2724	6624.025
1138.90589	6074.725
1142.5369	5714.525
1146.16542	5462.325
1149.79145	5304.325
1153.415	5236.425
1157.03607	5279.025
1160.65467	5393.325
1164.27079	5644.025
1167.88443	6031.525
1171.49561	6677.925
1175.10432	7773.925
1178.71056	9340.025
1182.31434	10585.525
1185.91565	10722.525
1189.51451	9943.725
1193.11091	8869.425
1196.70485	7913.525
1200.29634	7364.625
1203.88538	6952.525
1207.47197	6392.125
1211.05612	5870.125
1214.63782	5541.625
1218.21708	5356.025
1221.79391	5305.625
1225.36829	5282.725
1228.94024	5269.125
1232.50976	5260.025
1236.07685	5287.325
1239.6415	5327.125
1243.20374	5396.225
1246.76355	5456.425
1250.32093	5548.825
1253.8759	5672.925
1257.42845	5835.825
1260.97859	6109.625
1264.52631	6410.825
1268.07163	6676.425
1271.61453	6860.425
1275.15503	6940.225
1278.69312	6919.925
1282.22882	6969.925
1285.76211	7236.525
1289.29301	7646.325
1292.82151	8007.925
1296.34761	8472.125
1299.87133	9229.825
1303.39266	10683.825
1306.9116	12939.925
1310.42815	14930.725
1313.94233	15158.125
1317.45412	13448.325
1320.96354	11255.225
1324.47058	9414.225
1327.97525	8078.925
1331.47754	7322.725
1334.97747	7035.725
1338.47502	7149.925
1341.97022	7690.925
1345.46305	8776.125
1348.95352	10275.625
1352.44163	12057.425
1355.92738	14592.125
1359.41078	18351.925
1362.89183	21331.325
1366.37053	19597.725
1369.84688	14795.825
1373.32088	11069.425
1376.79254	9105.425
1380.26186	8020.525
1383.72883	7311.225
1387.19347	6768.025
1390.65578	6319.725
1394.11575	5980.425
1397.57339	5747.125
1401.0287	5635.725
1404.48168	5536.925
1407.93234	5507.125
1411.38068	5564.125
1414.82669	5693.925
1418.27039	5800.825
1421.71177	5830.725
1425.15083	5776.425
1428.58758	5796.325
1432.02203	5919.725
1435.45416	6003.925
1438.88399	5928.025
1442.31151	5868.825
1445.73673	5854.025
1449.15965	5894.925
1452.58027	5852.025
1455.9986	5774.025
1459.41463	5755.525
1462.82837	5823.925
1466.23982	5993.825
1469.64898	6188.525
1473.05586	6264.125
1476.46045	6276.025
1479.86276	6355.925
1483.26279	6552.825
1486.66054	6904.025
1490.05602	7441.325
1493.44922	8266.125
1496.84016	9697.925
1500.22882	12013.725
1503.61521	15358.225
1506.99934	19030.825
1510.38121	21437.425
1513.76081	21091.025
1517.13816	18035.525
1520.51324	14100.225
1523.88607	10971.025
1527.25665	9132.425
1530.62498	8126.025
1533.99105	7525.325
1537.35488	7167.025
1540.71647	6962.125
1544.07581	6954.625
1547.4329	7055.925
1550.78776	7241.225
1554.14038	7456.425
1557.49077	7667.625
1560.83892	7995.625
1564.18484	8496.725
1567.52853	9088.225
1570.86999	9550.825
1574.20922	9767.825
1577.54624	9534.325
1580.88103	8642.925
1584.2136	7574.725
1587.54395	6893.325
1590.87208	6724.825
1594.19801	6952.025
1597.52172	7367.225
1600.84321	7458.425
1604.16251	7204.725
1607.47959	6901.925
1610.79447	6609.925
1614.10715	6271.925
1617.41763	5959.725
1620.7259	5800.725
1624.03199	5742.025
1627.33587	5804.425
1630.63757	5958.725
1633.93707	6266.425
1637.23439	6835.625
1640.52951	7831.925
1643.82246	9504.425
1647.11321	11610.925
1650.40179	13016.725
1653.68819	12433.025
1656.97241	10381.425
1660.25446	8308.125
1663.53433	6999.825
1666.81203	6218.625
1670.08756	5827.225
1673.36092	5563.325
1676.63211	5381.925
1679.90115	5286.625
1683.16801	5222.825
1686.43272	5164.525
1689.69527	5131.525
1692.95567	5108.025
1696.2139	5096.625
1699.46999	5114.925
1702.72392	5083.725
1705.97571	5058.725
1709.22535	5035.825
1712.47284	5028.125
1715.71819	5005.425
1718.96139	4990.425
1722.20246	4973.225
1725.44139	4958.525
1728.67818	4909.425
1731.91284	4873.625
1735.14537	4836.725
1738.37576	4835.925
1741.60403	4825.025
1744.83017	4819.325
1748.05418	4818.125
1751.27607	4824.725
1754.49584	4839.225
1757.71349	4830.525
1760.92903	4820.425
1764.14244	4800.325
1767.35375	4796.625
1770.56294	4776.525
1773.77002	4742.925
1776.97499	4731.925
1780.17785	4703.425
1783.37861	4683.825
1786.57727	4686.525
1789.77382	4678.825
1792.96828	4681.825
1796.16064	4666.825
1799.3509	4666.225
1802.53907	4654.825
1805.72514	4641.825
1808.90913	4632.025
1812.09102	4605.925
1815.27083	4604.925
1818.44856	4594.325
1821.6242	4604.025
1824.79776	4610.125
1827.96924	4593.425
1831.13864	4593.825
1834.30597	4596.825
1837.47122	4571.625
1840.6344	4555.725
1843.7955	4575.625
1846.95454	4555.325
1850.11151	4553.425
1853.26642	4549.425
1856.41926	4563.125
1859.57004	4557.225
1862.71876	4555.125
1865.86542	4568.925
1869.01003	4574.625
1872.15258	4591.125
1875.29308	4606.225
1878.43152	4585.025
1881.56792	4598.625
1884.70227	4587.025
1887.83457	4607.525
1890.96482	4589.225
1894.09304	4577.225
1897.21921	4580.025
1900.34335	4578.425
1903.46544	4594.125
1906.58551	4611.425
1909.70353	4617.225
1912.81953	4602.825
1915.93349	4599.025
1919.04543	4582.725
1922.15534	4590.825
1925.26322	4590.025
1928.36908	4594.725
1931.47292	4584.225
1934.57473	4591.425
1937.67453	4576.625
1940.77232	4559.125
1943.86808	4540.325
1946.96184	4528.825
1950.05358	4514.125
1953.14331	4530.325
1956.23103	4517.325
1959.31675	4518.825
1962.40046	4519.525
1965.48217	4511.225
1968.56188	4522.025
1971.63959	4513.825
1974.7153	4481.525
1977.78901	4482.225
1980.86073	4469.125
1983.93046	4460.325
1986.99819	4450.025
1990.06394	4438.025
1993.1277	4437.125
1996.18947	4418.325
1999.24925	4418.625
2002.30706	4415.625
2005.36288	4411.025
2008.41672	4400.725
2011.46859	4392.825
2014.51848	4382.525
2017.56639	4376.525
2020.61233	4363.225
2023.6563	4357.725
2026.6983	4363.625
2029.73833	4352.525
2032.7764	4346.625
2035.8125	4328.525
2038.84664	4335.225
2041.87881	4333.525
2044.90903	4329.725
2047.93729	4331.225
2050.96359	4325.525
2053.98794	4318.425
2057.01034	4331.125
2060.03078	4321.425
2063.04927	4330.725
2066.06582	4318.725
2069.08042	4331.525
2072.09307	4341.425
2075.10378	4338.525
2078.11255	4334.825
2081.11938	4339.725
2084.12426	4340.325
2087.12722	4349.825
2090.12824	4376.825
2093.12732	4384.525
2096.12447	4392.525
2099.11969	4381.825
2102.11299	4391.425
2105.10435	4408.525
2108.09379	4411.725
2111.08131	4412.525
2114.0669	4435.725
2117.05057	4452.525
2120.03233	4463.325
2123.01216	4484.325
2125.99008	4497.825
2128.96609	4501.225
2131.94018	4501.025
2134.91236	4513.525
2137.88263	4520.725
2140.851	4522.825
2143.81746	4542.625
2146.78201	4532.625
2149.74466	4527.825
2152.7054	4532.225
2155.66425	4517.825
2158.6212	4536.725
2161.57625	4542.825
2164.52941	4549.925
2167.48067	4547.825
2170.43004	4552.125
2173.37752	4568.825
2176.32311	4570.425
2179.26681	4575.125
2182.20863	4590.725
2185.14856	4603.125
2188.08661	4604.225
2191.02278	4594.425
2193.95707	4598.525
2196.88948	4581.425
2199.82001	4602.325
2202.74867	4592.125
2205.67545	4611.925
2208.60037	4615.325
2211.52341	4604.225
2214.44458	4607.525
2217.36388	4591.125
2220.28132	4599.925
2223.1969	4587.225
2226.11061	4575.525
2229.02246	4566.525
2231.93245	4565.925
2234.84058	4577.825
2237.74686	4579.125
2240.65128	4582.525
2243.55385	4608.625
2246.45456	4618.525
2249.35343	4618.725
2252.25044	4615.825
2255.14561	4620.425
2258.03893	4636.225
2260.93041	4642.525
2263.82004	4635.625
2266.70783	4622.225
2269.59378	4626.725
2272.4779	4613.625
2275.36017	4604.825
2278.24061	4601.325
2281.11922	4611.025
2283.996	4596.725
2286.87094	4606.425
2289.74405	4592.825
2292.61534	4579.425
2295.4848	4581.925
2298.35243	4585.325
2301.21824	4580.925
2304.08223	4597.525
2306.94439	4607.625
2309.80474	4608.525
2312.66327	4620.825
2315.51999	4615.825
2318.37489	4619.725
2321.22797	4612.025
2324.07925	4592.925
2326.92871	4588.825
2329.77637	4587.825
2332.62222	4592.125
2335.46626	4592.725
2338.3085	4594.625
2341.14893	4591.025
2343.98756	4610.325
2346.8244	4611.625
2349.65943	4600.525
2352.49267	4605.625
2355.32411	4621.525
2358.15376	4656.225
2360.98161	4648.225
2363.80768	4679.425
2366.63195	4679.625
2369.45444	4698.925
2372.27514	4690.225
2375.09405	4696.625
2377.91118	4686.825
2380.72652	4672.725
2383.54009	4670.325
2386.35187	4666.625
2389.16188	4656.025
2391.97011	4626.625
2394.77657	4623.725
2397.58125	4624.825
2400.38416	4628.225
2403.18529	4624.925
2405.98466	4594.725
2408.78226	4605.725
2411.57809	4570.025
2414.37216	4597.125
2417.16446	4602.625
2419.955	4623.325
2422.74378	4624.325
2425.5308	4625.925
2428.31606	4629.725
2431.09956	4630.325
2433.88131	4630.225
2436.6613	4665.625
2439.43954	4661.225
2442.21603	4631.025
2444.99077	4639.025
2447.76377	4632.525
2450.53501	4638.025
2453.30451	4650.125
2456.07226	4660.325
2458.83827	4659.225
2461.60254	4681.125
2464.36507	4662.725
2467.12586	4650.225
2469.88492	4637.625
2472.64224	4656.225
2475.39782	4676.925
2478.15167	4690.425
2480.90379	4702.525
2483.65417	4701.025
2486.40283	4732.825
2489.14976	4731.325
2491.89497	4758.625
2494.63845	4757.925
2497.3802	4756.125
2500.12024	4730.725
2502.85855	4729.325
2505.59514	4692.325
2508.33002	4700.925
2511.06318	4693.825
2513.79462	4688.625
2516.52435	4658.025
2519.25237	4649.225
2521.97867	4645.125
2524.70327	4641.525
2527.42616	4646.725
2530.14734	4622.725
2532.86681	4628.325
2535.58458	4653.925
2538.30065	4671.025
2541.01501	4664.625
2543.72768	4666.325
2546.43864	4678.125
2549.14791	4666.225
2551.85548	4660.125
2554.56136	4650.925
2557.26554	4665.525
2559.96803	4670.125
2562.66883	4678.825
2565.36794	4655.525
2568.06536	4639.625
2570.7611	4632.425
2573.45514	4615.725
2576.14751	4622.725
2578.83819	4614.025
2581.52719	4609.925
2584.21451	4623.225
2586.90015	4628.325
2589.58411	4608.225
2592.2664	4644.825
2594.94701	4623.925
2597.62594	4629.525
2600.30321	4622.225
2602.9788	4599.025
2605.65273	4624.225
2608.32498	4621.425
2610.99557	4640.325
2613.66449	4640.525
2616.33175	4618.125
2618.99734	4613.525
2621.66128	4609.025
2624.32355	4587.825
2626.98416	4593.425
2629.64311	4588.225
2632.30041	4594.425
2634.95605	4590.325
2637.61004	4576.025
2640.26238	4569.125
2642.91306	4575.425
2645.56209	4565.225
2648.20948	4556.125
2650.85521	4567.825
2653.4993	4583.625
2656.14175	4582.825
2658.78255	4597.525
2661.42171	4617.925
2664.05923	4613.525
2666.6951	4625.725
2669.32934	4648.525
2671.96194	4649.625
2674.59291	4637.525
2677.22224	4656.025
2679.84993	4664.325
2682.476	4660.125
2685.10043	4659.525
2687.72324	4651.125
2690.34441	4652.125
2692.96396	4646.625
2695.58188	4668.525
2698.19818	4682.725
2700.81285	4695.625
2703.4259	4683.925
2706.03733	4686.625
2708.64714	4675.925
2711.25533	4673.425
2713.86191	4678.125
2716.46687	4686.625
2719.07021	4713.225
2721.67194	4735.025
2724.27206	4727.825
2726.87057	4733.725
2729.46747	4740.825
2732.06276	4725.825
2734.65644	4720.825
2737.24852	4722.125
2739.83899	4699.025
2742.42786	4716.925
2745.01513	4703.025
2747.60079	4694.525
2750.18486	4696.125
2752.76733	4692.825
2755.3482	4669.825
2757.92747	4676.325
2760.50515	4691.125
2763.08123	4668.625
2765.65573	4668.425
2768.22863	4661.525
2770.79994	4666.425
2773.36967	4678.525
2775.9378	4671.425
2778.50435	4666.325
2781.06932	4651.425
2783.6327	4660.825
2786.1945	4671.525
2788.75471	4669.925
2791.31335	4663.525
2793.87041	4665.325
2796.42589	4678.425
2798.97979	4671.825
2801.53212	4668.625
2804.08288	4670.825
2806.63206	4678.725
2809.17967	4660.725
2811.72571	4673.525
2814.27018	4677.125
2816.81308	4677.825
2819.35442	4674.025
2821.89419	4649.625
2824.43239	4675.525
2826.96904	4688.925
2829.50412	4690.925
2832.03763	4676.025
2834.56959	4650.625
2837.1	4637.225
2839.62884	4659.425
2842.15613	4662.125
2844.68186	4657.425
2847.20604	4669.725
2849.72867	4678.325
2852.24974	4665.425
2854.76927	4684.625
2857.28724	4701.425
2859.80367	4689.225
2862.31855	4698.725
2864.83189	4701.825
2867.34368	4721.225
2869.85393	4716.325
2872.36264	4738.425
2874.8698	4743.825
2877.37543	4743.425
2879.87952	4739.225
2882.38207	4733.925
2884.88308	4734.225
2887.38256	4745.125
2889.88051	4730.825
2892.37692	4741.525
2894.8718	4776.025
2897.36515	4777.425
2899.85698	4773.525
2902.34727	4804.125
2904.83604	4802.025
2907.32328	4817.125
2909.809	4822.825
2912.29319	4821.725
2914.77587	4840.625
2917.25702	4830.325
2919.73665	4838.325
2922.21476	4843.525
2924.69136	4840.925
2927.16644	4820.525
2929.64	4806.225
2932.11205	4820.725
2934.58258	4811.725
2937.05161	4817.125
2939.51912	4851.225
2941.98513	4855.825
2944.44962	4841.225
2946.91261	4842.025
2949.37409	4839.925
2951.83407	4834.325
2954.29254	4841.325
2956.74951	4858.025
2959.20498	4818.425
2961.65895	4820.125
2964.11142	4825.925
2966.56239	4816.425
2969.01186	4810.025
2971.45984	4815.525
2973.90632	4798.825
2976.35131	4805.825
2978.7948	4803.325
2981.23681	4801.725
2983.67732	4795.525
2986.11635	4779.425
2988.55388	4789.425
2990.98993	4795.625
2993.4245	4782.825
2995.85758	4768.925
2998.28917	4746.325
3000.71928	4753.325
3003.14791	4762.125
3005.57506	4767.825
3008.00073	4747.325
3010.42493	4729.125
3012.84764	4760.325
3015.26888	4739.625
3017.68865	4736.725
3020.10694	4722.725
3022.52376	4745.525
3024.9391	4739.025
3027.35298	4741.325
3029.76539	4725.225
3032.17632	4727.225
3034.5858	4719.925
3036.9938	4716.425
3039.40034	4708.325
3041.80542	4712.325
3044.20903	4744.025
3046.61118	4732.725
3049.01187	4716.525
3051.4111	4722.025
3053.80888	4730.725
3056.20519	4714.825
3058.60005	4726.925
3060.99345	4752.325
3063.3854	4720.825
3065.7759	4703.225
3068.16494	4692.225
3070.55254	4664.025
3072.93868	4660.025
3075.32338	4660.525
3077.70662	4645.925
3080.08842	4632.825
3082.46878	4654.125
3084.84769	4659.525
3087.22515	4672.825
3089.60118	4678.025
3091.97576	4675.425
3094.3489	4670.925
3096.72061	4685.025
3099.09087	4699.925
3101.4597	4716.925
3103.82709	4731.525
3106.19305	4751.725
3108.55757	4744.025
3110.92066	4742.025
3113.28232	4751.725
3115.64255	4741.025
3118.00134	4756.825
3120.35871	4744.425
3122.71466	4748.825
3125.06917	4733.425
3127.42226	4746.925
3129.77393	4760.125
3132.12417	4758.025
3134.47299	4772.625
3136.82039	4775.425
3139.16636	4765.425
3141.51092	4765.025
3143.85406	4767.625
3146.19579	4791.025
3148.53609	4816.425
3150.87499	4808.225
3153.21246	4815.725
3155.54853	4856.725
3157.88318	4848.125
3160.21642	4845.325
3162.54826	4862.625
3164.87868	4876.425
3167.2077	4909.425
3169.5353	4925.025
3171.86151	4923.525
3174.18631	4934.025
3176.5097	4929.425
3178.83169	4906.225
3181.15228	4917.425
3183.47147	4909.825
3185.78926	4921.925
3188.10565	4917.725
3190.42065	4931.225
3192.73424	4936.025
3195.04645	4930.625
3197.35725	4912.825
3199.66667	4930.725
3201.97469	4928.625
3204.28132	4951.825
3206.58656	4987.225
3208.8904	4999.325
3211.19287	4999.725
3213.49394	4994.425
3215.79363	4997.525
3218.09193	5017.225
3220.38884	5030.425
3222.68438	5073.225
3224.97853	5062.325
3227.2713	5063.325
3229.56269	5077.125
3231.8527	5068.825
3234.14133	5079.125
3236.42858	5056.425
3238.71446	5075.725
3240.99896	5066.325
3243.28209	5046.525
3245.56384	5053.425
3247.84423	5043.825
3250.12324	5031.325
3252.40088	5018.625
3254.67715	5017.125
3256.95205	5027.225
3259.22558	5067.125
3261.49775	5050.725
3263.76855	5069.425
3266.03799	5038.925
3268.30606	5057.825
3270.57277	5056.425
3272.83812	5057.425
3275.10211	5033.725
3277.36474	5045.625
3279.62601	5038.725
3281.88593	5033.825
3284.14448	5031.825
3286.40168	5040.825
3288.65753	5019.325
3290.91202	5027.725
3293.16516	4999.625
3295.41695	4992.925
3297.66738	4978.925
3299.91647	4965.725
3302.16421	4967.625
3304.4106	4941.025
3306.65564	4902.425
3308.89933	4854.225
3311.14169	4817.525
3313.38269	4777.725
3315.62236	4771.125
3317.86068	4729.325
3320.09766	4720.125
3322.3333	4670.925
3324.5676	4640.925
3326.80056	4560.525
3329.03219	4522.625
3331.26248	3.225
3333.49143	0.625
3335.71905	1.225
