Data from AgNPs_UA_50uM_CRN_500uM_AS_RamanShift__30__15-40-31-577.txt Node

Date: Wed Aug 17 15:40:31 BST 2022
User: TCL
Spectrometer: QEP01345
Trigger mode: 4
Integration Time (sec): 7.000000E0
Scans to average: 10
Electric dark correction enabled: true
Nonlinearity correction enabled: false
Boxcar width: 0
XAxis mode: Raman Shifts
Number of Pixels in Spectrum: 1044
>>>>>Begin Spectral Data<<<<<
46.04893	-0.3875
50.45542	-0.1875
54.85868	-2.3875
59.25871	0.5125
63.6555	30.0125
68.04907	28.7125
72.43941	33.9125
76.82654	36.7125
81.21044	37.1125
85.59113	38.9125
89.96862	36.6125
94.34289	45.0125
98.71396	45.3125
103.08183	47.2125
107.4465	48.4125
111.80798	46.8125
116.16626	47.7125
120.52136	45.9125
124.87327	47.9125
129.222	48.1125
133.56755	50.4125
137.90993	49.0125
142.24913	55.9125
146.58517	62.6125
150.91804	69.0125
155.24774	75.1125
159.57429	85.8125
163.89768	107.7125
168.21792	139.6125
172.53501	182.7125
176.84895	250.0125
181.15975	344.3125
185.46741	472.3125
189.77193	663.7125
194.07331	881.1125
198.37157	1145.0125
202.6667	1427.4125
206.9587	1718.0125
211.24758	2022.7125
215.53334	2348.4125
219.81599	2749.4125
224.09553	3183.0125
228.37195	3661.2125
232.64527	4142.9125
236.91549	4605.7125
241.18261	4954.5125
245.44663	5174.6125
249.70755	5337.5125
253.96539	5480.0125
258.22014	5604.2125
262.4718	5656.2125
266.72039	5618.7125
270.96589	5486.0125
275.20832	5278.6125
279.44768	5032.2125
283.68397	4856.0125
287.91719	4773.5125
292.14735	4853.5125
296.37445	5117.6125
300.59849	5592.5125
304.81948	6197.3125
309.03742	6696.5125
313.25231	6824.4125
317.46415	6369.9125
321.67296	5570.7125
325.87872	4926.2125
330.08145	4641.4125
334.28114	4662.3125
338.47781	4861.5125
342.67145	5119.2125
346.86207	5525.1125
351.04966	6161.0125
355.23424	6871.0125
359.4158	7314.5125
363.59435	7394.7125
367.76989	7231.7125
371.94243	6989.5125
376.11196	6724.9125
380.27849	6523.2125
384.44203	6286.5125
388.60257	6095.8125
392.76012	5987.1125
396.91468	6016.2125
401.06626	6211.3125
405.21485	6266.5125
409.36047	5974.2125
413.50311	5400.2125
417.64277	4874.8125
421.77947	4562.9125
425.9132	4420.9125
430.04396	4391.6125
434.17176	4417.2125
438.2966	4518.1125
442.41849	4675.0125
446.53742	4837.1125
450.6534	4960.1125
454.76644	4946.3125
458.87653	4871.9125
462.98368	4765.7125
467.08789	4638.5125
471.18916	4539.5125
475.2875	4400.5125
479.38291	4266.6125
483.4754	4208.6125
487.56496	4152.9125
491.6516	4140.6125
495.73531	4131.7125
499.81612	4169.3125
503.89401	4254.6125
507.96899	4393.7125
512.04106	4548.7125
516.11023	4727.6125
520.1765	4876.2125
524.23987	4873.6125
528.30034	4820.2125
532.35792	4722.8125
536.41261	4618.5125
540.46441	4446.8125
544.51333	4368.4125
548.55936	4366.3125
552.60252	4510.2125
556.64279	4678.4125
560.6802	4844.5125
564.71473	5217.2125
568.7464	5708.6125
572.7752	5737.9125
576.80114	5067.5125
580.82422	4518.6125
584.84444	4268.4125
588.86181	4183.1125
592.87633	4225.0125
596.888	4370.7125
600.89682	4808.8125
604.9028	6248.3125
608.90594	9697.0125
612.90624	13518.0125
616.90371	11975.6125
620.89834	7179.4125
624.89015	5183.7125
628.87913	4944.9125
632.86528	5209.8125
636.84862	5399.5125
640.82913	5112.6125
644.80683	4639.8125
648.78172	4340.1125
652.75379	4391.6125
656.72306	4771.9125
660.68952	5114.4125
664.65319	4843.6125
668.61405	4376.1125
672.57211	4198.3125
676.52738	4221.5125
680.47986	4221.7125
684.42955	4150.4125
688.37646	4100.0125
692.32058	4117.0125
696.26192	4159.1125
700.20048	4243.4125
704.13626	4269.5125
708.06928	4233.7125
711.99952	4193.1125
715.927	4218.5125
719.85171	4290.7125
723.77365	4353.3125
727.69284	4340.3125
731.60928	4288.8125
735.52295	4259.3125
739.43388	4252.2125
743.34206	4273.1125
747.24749	4284.1125
751.15017	4310.2125
755.05012	4470.2125
758.94733	5053.5125
762.8418	6403.4125
766.73354	8168.2125
770.62254	9425.2125
774.50882	9885.9125
778.39237	9417.0125
782.27321	7730.0125
786.15132	5969.7125
790.02671	4971.6125
793.89938	4554.0125
797.76935	4403.6125
801.6366	4347.7125
805.50115	4334.4125
809.36299	4337.7125
813.22213	4338.4125
817.07857	4317.6125
820.93231	4316.8125
824.78336	4347.4125
828.63172	4397.7125
832.47738	4418.3125
836.32036	4350.6125
840.16066	4279.4125
843.99827	4231.2125
847.8332	4204.9125
851.66546	4215.9125
855.49504	4209.6125
859.32195	4223.0125
863.1462	4202.2125
866.96777	4202.9125
870.78668	4232.4125
874.60293	4270.7125
878.41652	4344.6125
882.22745	4427.1125
886.03573	4466.8125
889.84136	4479.6125
893.64433	4467.8125
897.44466	4445.4125
901.24235	4456.3125
905.0374	4389.0125
908.8298	4316.3125
912.61957	4237.8125
916.40671	4243.3125
920.19121	4244.9125
923.97308	4330.3125
927.75233	4479.5125
931.52895	4662.2125
935.30295	4565.1125
939.07433	4319.0125
942.84309	4152.9125
946.60924	4062.2125
950.37278	4052.2125
954.13371	4041.5125
957.89203	4050.5125
961.64774	4042.0125
965.40086	4032.6125
969.15137	4032.2125
972.89929	4032.9125
976.64461	4014.6125
980.38733	4036.9125
984.12747	4050.1125
987.86502	4070.7125
991.59999	4097.9125
995.33237	4145.6125
999.06217	4206.5125
1002.78939	4308.3125
1006.51404	4422.1125
1010.23611	4503.7125
1013.95561	4497.8125
1017.67255	4473.2125
1021.38692	4408.7125
1025.09872	4339.8125
1028.80796	4302.9125
1032.51465	4307.1125
1036.21877	4344.8125
1039.92035	4403.5125
1043.61937	4464.4125
1047.31584	4513.8125
1051.00976	4526.0125
1054.70114	4495.3125
1058.38998	4501.2125
1062.07627	4499.3125
1065.76003	4499.3125
1069.44126	4536.2125
1073.11995	4612.9125
1076.79611	4764.1125
1080.46974	5026.7125
1084.14085	5337.5125
1087.80943	5570.3125
1091.47549	5560.2125
1095.13903	5344.2125
1098.80005	5069.1125
1102.45857	4931.5125
1106.11456	4956.9125
1109.76805	5077.1125
1113.41903	5370.2125
1117.06751	5817.4125
1120.71348	6478.3125
1124.35696	7215.4125
1127.99793	7548.5125
1131.63641	7051.4125
1135.2724	6289.7125
1138.90589	5791.0125
1142.5369	5458.4125
1146.16542	5223.6125
1149.79145	5088.2125
1153.415	5032.3125
1157.03607	5068.9125
1160.65467	5189.8125
1164.27079	5391.0125
1167.88443	5728.7125
1171.49561	6328.4125
1175.10432	7317.2125
1178.71056	8621.3125
1182.31434	9563.3125
1185.91565	9608.7125
1189.51451	9022.9125
1193.11091	8222.1125
1196.70485	7530.4125
1200.29634	7111.5125
1203.88538	6722.3125
1207.47197	6177.3125
1211.05612	5675.9125
1214.63782	5357.9125
1218.21708	5189.0125
1221.79391	5103.6125
1225.36829	5106.8125
1228.94024	5111.6125
1232.50976	5113.8125
1236.07685	5129.6125
1239.6415	5184.8125
1243.20374	5257.5125
1246.76355	5319.0125
1250.32093	5402.6125
1253.8759	5536.1125
1257.42845	5712.5125
1260.97859	5979.4125
1264.52631	6268.7125
1268.07163	6494.7125
1271.61453	6582.7125
1275.15503	6576.1125
1278.69312	6538.4125
1282.22882	6646.5125
1285.76211	6924.9125
1289.29301	7257.5125
1292.82151	7533.5125
1296.34761	7859.3125
1299.87133	8498.3125
1303.39266	9785.9125
1306.9116	11735.8125
1310.42815	13567.3125
1313.94233	13739.7125
1317.45412	12183.0125
1320.96354	10205.1125
1324.47058	8554.2125
1327.97525	7396.6125
1331.47754	6819.7125
1334.97747	6669.6125
1338.47502	6860.8125
1341.97022	7508.5125
1345.46305	8561.5125
1348.95352	9805.0125
1352.44163	11351.4125
1355.92738	13686.1125
1359.41078	17018.7125
1362.89183	18982.1125
1366.37053	16802.7125
1369.84688	12859.2125
1373.32088	10055.4125
1376.79254	8540.8125
1380.26186	7617.3125
1383.72883	6920.8125
1387.19347	6357.4125
1390.65578	5937.9125
1394.11575	5635.8125
1397.57339	5474.1125
1401.0287	5393.4125
1404.48168	5326.2125
1407.93234	5320.0125
1411.38068	5372.6125
1414.82669	5505.8125
1418.27039	5549.9125
1421.71177	5571.5125
1425.15083	5559.0125
1428.58758	5649.1125
1432.02203	5780.3125
1435.45416	5799.3125
1438.88399	5692.6125
1442.31151	5633.5125
1445.73673	5644.6125
1449.15965	5664.2125
1452.58027	5609.4125
1455.9986	5549.5125
1459.41463	5544.0125
1462.82837	5647.9125
1466.23982	5808.0125
1469.64898	5911.7125
1473.05586	5936.8125
1476.46045	5932.0125
1479.86276	6004.1125
1483.26279	6207.0125
1486.66054	6540.8125
1490.05602	7023.8125
1493.44922	7830.8125
1496.84016	9094.9125
1500.22882	11106.9125
1503.61521	13908.1125
1506.99934	16955.3125
1510.38121	19110.0125
1513.76081	18959.3125
1517.13816	16457.0125
1520.51324	13140.8125
1523.88607	10315.2125
1527.25665	8637.3125
1530.62498	7724.0125
1533.99105	7184.8125
1537.35488	6867.0125
1540.71647	6709.0125
1544.07581	6714.3125
1547.4329	6816.5125
1550.78776	6968.2125
1554.14038	7121.0125
1557.49077	7290.3125
1560.83892	7574.2125
1564.18484	8073.1125
1567.52853	8586.1125
1570.86999	8949.1125
1574.20922	9084.4125
1577.54624	8802.2125
1580.88103	8016.9125
1584.2136	7093.5125
1587.54395	6550.8125
1590.87208	6429.5125
1594.19801	6665.0125
1597.52172	7032.1125
1600.84321	7121.1125
1604.16251	6915.5125
1607.47959	6626.3125
1610.79447	6313.8125
1614.10715	6034.8125
1617.41763	5783.9125
1620.7259	5657.7125
1624.03199	5650.4125
1627.33587	5715.4125
1630.63757	5873.1125
1633.93707	6183.5125
1637.23439	6740.4125
1640.52951	7724.2125
1643.82246	9322.6125
1647.11321	11168.5125
1650.40179	12236.3125
1653.68819	11577.6125
1656.97241	9703.9125
1660.25446	7908.7125
1663.53433	6707.2125
1666.81203	6045.0125
1670.08756	5696.3125
1673.36092	5468.9125
1676.63211	5304.1125
1679.90115	5207.9125
1683.16801	5170.4125
1686.43272	5135.9125
1689.69527	5106.1125
1692.95567	5074.8125
1696.2139	5091.1125
1699.46999	5090.0125
1702.72392	5080.3125
1705.97571	5055.5125
1709.22535	5029.5125
1712.47284	5042.1125
1715.71819	5036.0125
1718.96139	5010.1125
1722.20246	5001.1125
1725.44139	4972.7125
1728.67818	4934.3125
1731.91284	4900.1125
1735.14537	4864.3125
1738.37576	4885.6125
1741.60403	4883.9125
1744.83017	4857.0125
1748.05418	4853.5125
1751.27607	4866.5125
1754.49584	4868.4125
1757.71349	4890.2125
1760.92903	4865.9125
1764.14244	4837.7125
1767.35375	4822.1125
1770.56294	4814.9125
1773.77002	4801.8125
1776.97499	4776.6125
1780.17785	4761.1125
1783.37861	4752.6125
1786.57727	4734.1125
1789.77382	4742.8125
1792.96828	4728.9125
1796.16064	4739.3125
1799.3509	4723.5125
1802.53907	4713.0125
1805.72514	4716.3125
1808.90913	4705.0125
1812.09102	4675.1125
1815.27083	4675.2125
1818.44856	4684.4125
1821.6242	4686.2125
1824.79776	4685.1125
1827.96924	4689.8125
1831.13864	4684.7125
1834.30597	4659.0125
1837.47122	4656.0125
1840.6344	4646.4125
1843.7955	4625.7125
1846.95454	4645.5125
1850.11151	4646.8125
1853.26642	4642.7125
1856.41926	4660.2125
1859.57004	4638.2125
1862.71876	4659.5125
1865.86542	4658.4125
1869.01003	4674.3125
1872.15258	4699.0125
1875.29308	4693.1125
1878.43152	4696.7125
1881.56792	4699.9125
1884.70227	4690.4125
1887.83457	4696.6125
1890.96482	4682.3125
1894.09304	4688.7125
1897.21921	4684.4125
1900.34335	4695.0125
1903.46544	4731.8125
1906.58551	4723.3125
1909.70353	4718.2125
1912.81953	4719.8125
1915.93349	4700.9125
1919.04543	4701.3125
1922.15534	4707.3125
1925.26322	4718.0125
1928.36908	4707.5125
1931.47292	4705.1125
1934.57473	4677.8125
1937.67453	4682.8125
1940.77232	4679.8125
1943.86808	4653.8125
1946.96184	4645.2125
1950.05358	4636.6125
1953.14331	4647.7125
1956.23103	4648.4125
1959.31675	4625.8125
1962.40046	4646.8125
1965.48217	4649.2125
1968.56188	4648.0125
1971.63959	4640.3125
1974.7153	4609.9125
1977.78901	4608.2125
1980.86073	4582.3125
1983.93046	4577.3125
1986.99819	4587.8125
1990.06394	4592.6125
1993.1277	4567.6125
1996.18947	4543.6125
1999.24925	4540.3125
2002.30706	4534.2125
2005.36288	4519.2125
2008.41672	4525.9125
2011.46859	4504.7125
2014.51848	4519.3125
2017.56639	4502.7125
2020.61233	4509.6125
2023.6563	4489.3125
2026.6983	4478.1125
2029.73833	4469.1125
2032.7764	4460.0125
2035.8125	4453.0125
2038.84664	4464.7125
2041.87881	4454.9125
2044.90903	4465.8125
2047.93729	4464.2125
2050.96359	4454.0125
2053.98794	4447.6125
2057.01034	4459.5125
2060.03078	4461.1125
2063.04927	4467.2125
2066.06582	4474.5125
2069.08042	4477.8125
2072.09307	4496.3125
2075.10378	4491.8125
2078.11255	4478.0125
2081.11938	4472.6125
2084.12426	4482.4125
2087.12722	4502.4125
2090.12824	4517.2125
2093.12732	4530.0125
2096.12447	4546.0125
2099.11969	4537.0125
2102.11299	4545.4125
2105.10435	4563.2125
2108.09379	4556.5125
2111.08131	4550.7125
2114.0669	4572.0125
2117.05057	4584.3125
2120.03233	4619.4125
2123.01216	4631.5125
2125.99008	4659.8125
2128.96609	4654.9125
2131.94018	4669.8125
2134.91236	4675.2125
2137.88263	4679.9125
2140.851	4695.5125
2143.81746	4714.7125
2146.78201	4707.6125
2149.74466	4706.2125
2152.7054	4701.7125
2155.66425	4684.1125
2158.6212	4698.1125
2161.57625	4707.3125
2164.52941	4710.4125
2167.48067	4715.3125
2170.43004	4710.5125
2173.37752	4731.7125
2176.32311	4749.7125
2179.26681	4748.4125
2182.20863	4759.0125
2185.14856	4772.4125
2188.08661	4770.8125
2191.02278	4772.3125
2193.95707	4772.1125
2196.88948	4759.9125
2199.82001	4775.1125
2202.74867	4771.0125
2205.67545	4801.2125
2208.60037	4786.8125
2211.52341	4787.2125
2214.44458	4793.6125
2217.36388	4799.2125
2220.28132	4777.3125
2223.1969	4767.6125
2226.11061	4756.2125
2229.02246	4743.7125
2231.93245	4769.0125
2234.84058	4775.5125
2237.74686	4763.3125
2240.65128	4770.9125
2243.55385	4792.7125
2246.45456	4802.6125
2249.35343	4792.0125
2252.25044	4796.5125
2255.14561	4808.8125
2258.03893	4815.4125
2260.93041	4828.4125
2263.82004	4833.9125
2266.70783	4815.3125
2269.59378	4817.5125
2272.4779	4796.9125
2275.36017	4798.8125
2278.24061	4800.4125
2281.11922	4810.1125
2283.996	4785.3125
2286.87094	4781.0125
2289.74405	4773.9125
2292.61534	4792.5125
2295.4848	4793.4125
2298.35243	4773.8125
2301.21824	4777.2125
2304.08223	4801.2125
2306.94439	4814.9125
2309.80474	4817.6125
2312.66327	4822.6125
2315.51999	4807.5125
2318.37489	4802.6125
2321.22797	4792.6125
2324.07925	4795.4125
2326.92871	4785.1125
2329.77637	4788.8125
2332.62222	4788.0125
2335.46626	4792.4125
2338.3085	4808.3125
2341.14893	4794.8125
2343.98756	4788.8125
2346.8244	4802.6125
2349.65943	4802.8125
2352.49267	4790.2125
2355.32411	4829.0125
2358.15376	4840.5125
2360.98161	4837.8125
2363.80768	4852.9125
2366.63195	4879.4125
2369.45444	4871.4125
2372.27514	4872.6125
2375.09405	4877.3125
2377.91118	4874.6125
2380.72652	4875.1125
2383.54009	4885.5125
2386.35187	4884.5125
2389.16188	4855.2125
2391.97011	4843.9125
2394.77657	4838.3125
2397.58125	4842.3125
2400.38416	4830.6125
2403.18529	4816.7125
2405.98466	4821.6125
2408.78226	4797.6125
2411.57809	4789.5125
2414.37216	4799.3125
2417.16446	4815.6125
2419.955	4823.8125
2422.74378	4839.7125
2425.5308	4841.5125
2428.31606	4846.3125
2431.09956	4845.2125
2433.88131	4842.9125
2436.6613	4851.8125
2439.43954	4862.8125
2442.21603	4872.8125
2444.99077	4845.6125
2447.76377	4862.1125
2450.53501	4850.5125
2453.30451	4858.7125
2456.07226	4882.9125
2458.83827	4868.6125
2461.60254	4861.5125
2464.36507	4872.6125
2467.12586	4871.0125
2469.88492	4857.9125
2472.64224	4867.0125
2475.39782	4886.5125
2478.15167	4904.8125
2480.90379	4896.6125
2483.65417	4906.9125
2486.40283	4929.4125
2489.14976	4939.3125
2491.89497	4956.1125
2494.63845	4976.2125
2497.3802	4951.2125
2500.12024	4941.8125
2502.85855	4930.3125
2505.59514	4934.1125
2508.33002	4919.1125
2511.06318	4920.6125
2513.79462	4909.6125
2516.52435	4893.1125
2519.25237	4873.5125
2521.97867	4887.6125
2524.70327	4878.5125
2527.42616	4871.3125
2530.14734	4861.4125
2532.86681	4866.6125
2535.58458	4884.6125
2538.30065	4900.3125
2541.01501	4905.3125
2543.72768	4894.0125
2546.43864	4913.6125
2549.14791	4885.6125
2551.85548	4880.4125
2554.56136	4867.6125
2557.26554	4876.9125
2559.96803	4899.8125
2562.66883	4888.4125
2565.36794	4885.1125
2568.06536	4862.8125
2570.7611	4840.2125
2573.45514	4845.9125
2576.14751	4842.1125
2578.83819	4839.0125
2581.52719	4853.0125
2584.21451	4866.3125
2586.90015	4848.1125
2589.58411	4860.0125
2592.2664	4855.0125
2594.94701	4862.9125
2597.62594	4868.3125
2600.30321	4855.1125
2602.9788	4848.6125
2605.65273	4852.1125
2608.32498	4859.7125
2610.99557	4857.5125
2613.66449	4873.4125
2616.33175	4876.7125
2618.99734	4845.8125
2621.66128	4831.6125
2624.32355	4820.2125
2626.98416	4829.3125
2629.64311	4832.8125
2632.30041	4839.7125
2634.95605	4812.0125
2637.61004	4804.6125
2640.26238	4799.8125
2642.91306	4804.4125
2645.56209	4801.2125
2648.20948	4803.2125
2650.85521	4799.5125
2653.4993	4812.8125
2656.14175	4828.4125
2658.78255	4847.5125
2661.42171	4863.5125
2664.05923	4877.5125
2666.6951	4868.3125
2669.32934	4890.0125
2671.96194	4896.5125
2674.59291	4888.6125
2677.22224	4903.7125
2679.84993	4897.5125
2682.476	4913.7125
2685.10043	4899.3125
2687.72324	4905.3125
2690.34441	4904.9125
2692.96396	4891.3125
2695.58188	4913.5125
2698.19818	4918.5125
2700.81285	4922.0125
2703.4259	4924.0125
2706.03733	4955.1125
2708.64714	4938.7125
2711.25533	4932.2125
2713.86191	4934.9125
2716.46687	4951.5125
2719.07021	4981.2125
2721.67194	4985.4125
2724.27206	4986.3125
2726.87057	4988.3125
2729.46747	4976.6125
2732.06276	4993.4125
2734.65644	4993.8125
2737.24852	4967.3125
2739.83899	4965.1125
2742.42786	4973.7125
2745.01513	4947.3125
2747.60079	4951.4125
2750.18486	4963.3125
2752.76733	4962.9125
2755.3482	4944.8125
2757.92747	4942.7125
2760.50515	4949.4125
2763.08123	4936.4125
2765.65573	4943.9125
2768.22863	4940.6125
2770.79994	4934.7125
2773.36967	4938.7125
2775.9378	4930.4125
2778.50435	4929.9125
2781.06932	4936.0125
2783.6327	4928.0125
2786.1945	4948.0125
2788.75471	4942.9125
2791.31335	4940.4125
2793.87041	4958.9125
2796.42589	4956.6125
2798.97979	4970.1125
2801.53212	4960.1125
2804.08288	4937.3125
2806.63206	4958.1125
2809.17967	4968.9125
2811.72571	4943.5125
2814.27018	4951.3125
2816.81308	4956.6125
2819.35442	4937.4125
2821.89419	4931.9125
2824.43239	4953.9125
2826.96904	4967.9125
2829.50412	4960.6125
2832.03763	4949.4125
2834.56959	4945.3125
2837.1	4950.4125
2839.62884	4957.0125
2842.15613	4951.9125
2844.68186	4962.1125
2847.20604	4969.8125
2849.72867	4975.7125
2852.24974	4974.5125
2854.76927	4988.8125
2857.28724	5005.6125
2859.80367	5014.8125
2862.31855	5004.0125
2864.83189	5011.8125
2867.34368	5018.9125
2869.85393	5026.6125
2872.36264	5038.2125
2874.8698	5029.5125
2877.37543	5040.6125
2879.87952	5042.4125
2882.38207	5020.6125
2884.88308	5033.2125
2887.38256	5046.7125
2889.88051	5049.8125
2892.37692	5058.6125
2894.8718	5067.7125
2897.36515	5083.8125
2899.85698	5110.4125
2902.34727	5126.8125
2904.83604	5103.5125
2907.32328	5134.3125
2909.809	5136.9125
2912.29319	5147.9125
2914.77587	5149.5125
2917.25702	5135.4125
2919.73665	5118.8125
2922.21476	5126.2125
2924.69136	5133.7125
2927.16644	5119.2125
2929.64	5097.5125
2932.11205	5124.1125
2934.58258	5121.0125
2937.05161	5130.4125
2939.51912	5141.5125
2941.98513	5166.5125
2944.44962	5150.4125
2946.91261	5119.1125
2949.37409	5132.2125
2951.83407	5135.1125
2954.29254	5136.0125
2956.74951	5130.6125
2959.20498	5118.6125
2961.65895	5091.7125
2964.11142	5098.3125
2966.56239	5105.6125
2969.01186	5098.8125
2971.45984	5095.5125
2973.90632	5123.9125
2976.35131	5098.0125
2978.7948	5071.9125
2981.23681	5098.3125
2983.67732	5088.1125
2986.11635	5068.4125
2988.55388	5093.6125
2990.98993	5058.1125
2993.4245	5061.7125
2995.85758	5057.9125
2998.28917	5041.3125
3000.71928	5037.2125
3003.14791	5031.2125
3005.57506	5040.7125
3008.00073	5021.8125
3010.42493	4988.8125
3012.84764	5035.2125
3015.26888	5018.5125
3017.68865	5005.8125
3020.10694	4992.1125
3022.52376	5010.0125
3024.9391	5036.5125
3027.35298	5009.2125
3029.76539	5008.9125
3032.17632	5004.3125
3034.5858	5000.6125
3036.9938	4994.9125
3039.40034	4992.4125
3041.80542	5012.2125
3044.20903	5016.6125
3046.61118	5013.0125
3049.01187	4993.6125
3051.4111	5015.6125
3053.80888	5003.9125
3056.20519	5012.8125
3058.60005	5005.2125
3060.99345	5031.7125
3063.3854	5009.9125
3065.7759	4983.9125
3068.16494	4970.8125
3070.55254	4967.1125
3072.93868	4967.6125
3075.32338	4927.9125
3077.70662	4932.1125
3080.08842	4930.1125
3082.46878	4944.5125
3084.84769	4935.5125
3087.22515	4955.5125
3089.60118	4969.7125
3091.97576	4948.5125
3094.3489	4946.2125
3096.72061	4986.9125
3099.09087	4998.1125
3101.4597	5011.3125
3103.82709	5028.6125
3106.19305	5044.3125
3108.55757	5037.1125
3110.92066	5059.1125
3113.28232	5047.8125
3115.64255	5050.4125
3118.00134	5057.5125
3120.35871	5051.8125
3122.71466	5037.1125
3125.06917	5040.0125
3127.42226	5018.6125
3129.77393	5044.9125
3132.12417	5061.3125
3134.47299	5076.6125
3136.82039	5068.8125
3139.16636	5090.0125
3141.51092	5071.9125
3143.85406	5086.5125
3146.19579	5101.4125
3148.53609	5104.4125
3150.87499	5137.6125
3153.21246	5145.5125
3155.54853	5149.5125
3157.88318	5150.1125
3160.21642	5175.4125
3162.54826	5177.8125
3164.87868	5200.1125
3167.2077	5220.2125
3169.5353	5233.0125
3171.86151	5239.6125
3174.18631	5235.2125
3176.5097	5245.0125
3178.83169	5242.5125
3181.15228	5248.8125
3183.47147	5243.2125
3185.78926	5243.4125
3188.10565	5262.7125
3190.42065	5265.7125
3192.73424	5250.4125
3195.04645	5253.4125
3197.35725	5250.9125
3199.66667	5244.2125
3201.97469	5274.1125
3204.28132	5301.8125
3206.58656	5323.7125
3208.8904	5347.1125
3211.19287	5327.5125
3213.49394	5315.2125
3215.79363	5328.0125
3218.09193	5347.7125
3220.38884	5367.4125
3222.68438	5399.4125
3224.97853	5388.1125
3227.2713	5398.1125
3229.56269	5408.1125
3231.8527	5403.3125
3234.14133	5398.2125
3236.42858	5391.9125
3238.71446	5372.7125
3240.99896	5378.1125
3243.28209	5378.9125
3245.56384	5365.6125
3247.84423	5363.6125
3250.12324	5344.8125
3252.40088	5333.4125
3254.67715	5341.1125
3256.95205	5347.2125
3259.22558	5382.2125
3261.49775	5365.7125
3263.76855	5371.5125
3266.03799	5355.5125
3268.30606	5372.0125
3270.57277	5361.5125
3272.83812	5356.3125
3275.10211	5357.8125
3277.36474	5347.5125
3279.62601	5345.0125
3281.88593	5342.9125
3284.14448	5338.0125
3286.40168	5331.2125
3288.65753	5313.2125
3290.91202	5318.6125
3293.16516	5314.1125
3295.41695	5305.2125
3297.66738	5276.0125
3299.91647	5265.7125
3302.16421	5252.5125
3304.4106	5228.6125
3306.65564	5202.3125
3308.89933	5164.4125
3311.14169	5123.7125
3313.38269	5084.5125
3315.62236	5060.7125
3317.86068	5029.9125
3320.09766	4990.3125
3322.3333	4934.3125
3324.5676	4932.7125
3326.80056	4852.6125
3329.03219	4809.6125
3331.26248	2.9125
3333.49143	0.2125
3335.71905	0.9125
