Data from AgNPs_FTO_APTES_UA_20uM_CRN_10uM_R6G_10uM_NaF_0.1M_Addition_RamanShift__26__14-40-42-219.txt Node

Date: Thu Feb 17 14:40:42 GMT 2022
User: TCL
Spectrometer: QEP01345
Trigger mode: 4
Integration Time (sec): 7.000000E0
Scans to average: 10
Electric dark correction enabled: true
Nonlinearity correction enabled: false
Boxcar width: 0
XAxis mode: Raman Shifts
Number of Pixels in Spectrum: 1044
>>>>>Begin Spectral Data<<<<<
46.04893	-0.95
50.45542	-0.45
54.85868	-3.35
59.25871	-1.95
63.6555	121.25
68.04907	123.95
72.43941	124.95
76.82654	131.75
81.21044	134.15
85.59113	136.55
89.96862	142.95
94.34289	146.35
98.71396	150.25
103.08183	152.65
107.4465	159.15
111.80798	166.95
116.16626	169.55
120.52136	177.75
124.87327	183.35
129.222	197.45
133.56755	206.55
137.90993	219.75
142.24913	244.65
146.58517	280.95
150.91804	325.05
155.24774	394.15
159.57429	489.65
163.89768	628.65
168.21792	845.95
172.53501	1158.05
176.84895	1625.85
181.15975	2300.45
185.46741	3225.35
189.77193	4477.25
194.07331	6017.45
198.37157	7764.85
202.6667	9648.75
206.9587	11471.45
211.24758	13270.75
215.53334	15107.85
219.81599	17013.45
224.09553	19153.65
228.37195	21547.55
232.64527	24202.35
236.91549	26968.15
241.18261	29837.75
245.44663	32487.65
249.70755	34888.15
253.96539	36973.75
258.22014	38751.85
262.4718	40270.95
266.72039	41377.85
270.96589	41968.55
275.20832	42076.25
279.44768	41894.65
283.68397	41437.85
287.91719	41167.65
292.14735	40955.85
296.37445	41024.95
300.59849	41255.05
304.81948	41607.65
309.03742	41727.65
313.25231	41416.65
317.46415	40525.45
321.67296	39428.85
325.87872	38560.25
330.08145	38156.35
334.28114	38244.15
338.47781	38621.85
342.67145	39249.95
346.86207	40109.25
351.04966	41109.05
355.23424	42247.05
359.4158	43153.95
363.59435	43814.45
367.76989	44292.25
371.94243	44655.25
376.11196	44881.35
380.27849	45122.35
384.44203	45305.45
388.60257	45424.25
392.76012	45607.95
396.91468	46077.75
401.06626	46781.85
405.21485	47346.45
409.36047	47249.15
413.50311	46548.85
417.64277	45897.25
421.77947	45572.75
425.9132	45617.15
430.04396	45962.75
434.17176	46366.65
438.2966	46866.75
442.41849	47692.15
446.53742	48776.25
450.6534	50113.65
454.76644	51084.25
458.87653	51555.15
462.98368	51415.65
467.08789	50703.15
471.18916	49858.95
475.2875	49101.85
479.38291	48502.65
483.4754	48004.55
487.56496	47469.35
491.6516	47026.85
495.73531	46632.85
499.81612	46479.25
503.89401	46726.65
507.96899	46865.65
512.04106	46843.85
516.11023	47003.95
520.1765	47124.55
524.23987	47112.15
528.30034	46885.05
532.35792	46520.55
536.41261	46162.75
540.46441	45764.65
544.51333	45748.85
548.55936	46086.65
552.60252	46770.35
556.64279	47582.55
560.6802	48001.65
564.71473	48160.05
568.7464	48687.25
572.7752	49360.45
576.80114	49504.75
580.82422	49582.25
584.84444	49877.35
588.86181	50438.25
592.87633	51206.55
596.888	51695.25
600.89682	52240.15
604.9028	54525.65
608.90594	60272.75
612.90624	66909.35
616.90371	64062.05
620.89834	54072.95
624.89015	49685.25
628.87913	49108.05
632.86528	48882.95
636.84862	48544.95
640.82913	47941.35
644.80683	46869.15
648.78172	46130.25
652.75379	46223.65
656.72306	46974.15
660.68952	47955.65
664.65319	47911.15
668.61405	47048.95
672.57211	46740.45
676.52738	46712.45
680.47986	46765.95
684.42955	46671.25
688.37646	46700.95
692.32058	46984.95
696.26192	47330.15
700.20048	47764.85
704.13626	48064.15
708.06928	47888.55
711.99952	47547.05
715.927	47477.45
719.85171	47532.15
723.77365	47491.75
727.69284	47289.25
731.60928	46978.95
735.52295	46971.15
739.43388	47111.95
743.34206	47399.95
747.24749	47662.15
751.15017	48041.05
755.05012	48726.55
758.94733	49777.85
762.8418	52049.35
766.73354	55701.85
770.62254	59425.95
774.50882	60782.45
778.39237	58597.65
782.27321	54299.95
786.15132	50733.05
790.02671	48763.65
793.89938	47875.15
797.76935	47519.35
801.6366	47370.45
805.50115	47261.15
809.36299	47085.45
813.22213	46952.65
817.07857	46933.75
820.93231	46954.55
824.78336	46985.95
828.63172	47088.45
832.47738	47177.65
836.32036	47308.85
840.16066	47494.55
843.99827	47607.15
847.8332	47578.25
851.66546	47368.35
855.49504	47291.15
859.32195	47258.85
863.1462	47124.05
866.96777	47077.25
870.78668	46991.65
874.60293	47059.55
878.41652	47104.25
882.22745	47188.55
886.03573	47305.75
889.84136	47259.75
893.64433	47033.65
897.44466	46934.35
901.24235	46827.55
905.0374	46842.85
908.8298	46802.45
912.61957	46948.15
916.40671	47259.25
920.19121	47699.95
923.97308	48158.35
927.75233	48495.25
931.52895	48390.95
935.30295	48042.75
939.07433	47379.45
942.84309	46870.15
946.60924	46632.45
950.37278	46510.25
954.13371	46299.45
957.89203	46052.45
961.64774	45928.95
965.40086	45810.45
969.15137	45647.65
972.89929	45573.85
976.64461	45468.25
980.38733	45575.25
984.12747	45687.55
987.86502	46025.65
991.59999	46548.85
995.33237	47410.65
999.06217	48843.45
1002.78939	50445.15
1006.51404	51514.35
1010.23611	52019.65
1013.95561	52334.85
1017.67255	52526.25
1021.38692	52175.25
1025.09872	52022.85
1028.80796	52840.55
1032.51465	54292.65
1036.21877	55647.75
1039.92035	55745.75
1043.61937	54954.35
1047.31584	53329.85
1051.00976	51708.85
1054.70114	50813.95
1058.38998	50581.45
1062.07627	50526.15
1065.76003	50568.35
1069.44126	50709.55
1073.11995	50941.05
1076.79611	51205.55
1080.46974	51549.65
1084.14085	52071.65
1087.80943	52500.75
1091.47549	52616.85
1095.13903	52250.95
1098.80005	51525.95
1102.45857	50904.45
1106.11456	50640.05
1109.76805	50830.55
1113.41903	51381.05
1117.06751	51961.25
1120.71348	52592.25
1124.35696	53175.45
1127.99793	53604.05
1131.63641	53498.25
1135.2724	52908.15
1138.90589	52279.75
1142.5369	51785.35
1146.16542	51586.55
1149.79145	51557.05
1153.415	51879.55
1157.03607	52299.55
1160.65467	53029.65
1164.27079	54271.95
1167.88443	56090.95
1171.49561	58793.35
1175.10432	62649.15
1178.71056	67596.05
1182.31434	72385.45
1185.91565	74609.45
1189.51451	74192.55
1193.11091	71413.85
1196.70485	67969.45
1200.29634	65285.15
1203.88538	63215.95
1207.47197	61547.95
1211.05612	60150.75
1214.63782	59404.35
1218.21708	59384.85
1221.79391	59682.15
1225.36829	59875.25
1228.94024	59521.65
1232.50976	58648.25
1236.07685	58057.65
1239.6415	57923.15
1243.20374	58156.25
1246.76355	58651.65
1250.32093	59541.05
1253.8759	60745.35
1257.42845	62213.75
1260.97859	63353.25
1264.52631	64247.95
1268.07163	65295.05
1271.61453	66579.35
1275.15503	68081.25
1278.69312	69738.05
1282.22882	70942.05
1285.76211	72036.65
1289.29301	73127.05
1292.82151	74394.95
1296.34761	76304.45
1299.87133	79247.35
1303.39266	83415.15
1306.9116	88995.15
1310.42815	94720.35
1313.94233	97999.15
1317.45412	97559.15
1320.96354	94507.45
1324.47058	91022.75
1327.97525	87842.85
1331.47754	85759.65
1334.97747	85566.35
1338.47502	86652.45
1341.97022	88146.25
1345.46305	88980.75
1348.95352	89136.15
1352.44163	89428.85
1355.92738	91819.35
1359.41078	96994.15
1362.89183	101719.85
1366.37053	99576.45
1369.84688	90358.55
1373.32088	80749.15
1376.79254	74437.95
1380.26186	71248.85
1383.72883	69915.55
1387.19347	69227.85
1390.65578	68358.35
1394.11575	68103.15
1397.57339	68466.75
1401.0287	69566.65
1404.48168	70997.05
1407.93234	72432.95
1411.38068	73574.05
1414.82669	73640.85
1418.27039	72292.15
1421.71177	70048.85
1425.15083	68003.05
1428.58758	66838.35
1432.02203	66783.25
1435.45416	67366.45
1438.88399	67954.75
1442.31151	68579.75
1445.73673	69116.55
1449.15965	69641.15
1452.58027	69876.55
1455.9986	69676.55
1459.41463	69705.35
1462.82837	70282.05
1466.23982	71327.55
1469.64898	72692.65
1473.05586	73843.35
1476.46045	74533.25
1479.86276	75072.65
1483.26279	75566.75
1486.66054	76144.65
1490.05602	77092.05
1493.44922	78277.45
1496.84016	79251.45
1500.22882	80680.25
1503.61521	83216.35
1506.99934	86708.95
1510.38121	89752.15
1513.76081	90488.55
1517.13816	87850.15
1520.51324	83263.55
1523.88607	79077.75
1527.25665	76234.15
1530.62498	74798.75
1533.99105	73911.85
1537.35488	73375.05
1540.71647	73002.45
1544.07581	72744.85
1547.4329	72288.55
1550.78776	71483.05
1554.14038	70950.55
1557.49077	70736.75
1560.83892	70603.55
1564.18484	70592.85
1567.52853	70604.55
1570.86999	70666.75
1574.20922	70787.55
1577.54624	70734.85
1580.88103	69843.95
1584.2136	69261.45
1587.54395	70092.85
1590.87208	72910.15
1594.19801	77398.65
1597.52172	82432.55
1600.84321	84764.55
1604.16251	82808.75
1607.47959	77870.45
1610.79447	72365.55
1614.10715	67365.85
1617.41763	63442.85
1620.7259	60781.65
1624.03199	59537.75
1627.33587	59568.75
1630.63757	60766.95
1633.93707	63241.75
1637.23439	66808.15
1640.52951	71148.65
1643.82246	75982.55
1647.11321	80022.35
1650.40179	81212.25
1653.68819	77588.65
1656.97241	70300.45
1660.25446	62951.85
1663.53433	57649.25
1666.81203	54245.65
1670.08756	52095.15
1673.36092	50728.35
1676.63211	49827.95
1679.90115	49098.15
1683.16801	48533.65
1686.43272	48167.55
1689.69527	47954.75
1692.95567	47741.05
1696.2139	47642.95
1699.46999	47646.95
1702.72392	47511.55
1705.97571	47431.65
1709.22535	47364.55
1712.47284	47410.45
1715.71819	47470.85
1718.96139	47343.25
1722.20246	47240.35
1725.44139	47073.15
1728.67818	46903.55
1731.91284	46760.35
1735.14537	46567.95
1738.37576	46400.05
1741.60403	46330.05
1744.83017	46104.65
1748.05418	46023.85
1751.27607	46015.95
1754.49584	45997.85
1757.71349	46002.95
1760.92903	45999.85
1764.14244	45968.25
1767.35375	45924.75
1770.56294	45859.55
1773.77002	45838.75
1776.97499	45851.85
1780.17785	45772.55
1783.37861	45719.15
1786.57727	45672.85
1789.77382	45629.75
1792.96828	45642.55
1796.16064	45597.55
1799.3509	45586.45
1802.53907	45464.55
1805.72514	45457.05
1808.90913	45320.05
1812.09102	45265.45
1815.27083	45199.95
1818.44856	45164.75
1821.6242	45120.95
1824.79776	45058.45
1827.96924	44980.35
1831.13864	45056.15
1834.30597	45021.65
1837.47122	44960.55
1840.6344	44887.95
1843.7955	44961.15
1846.95454	44933.45
1850.11151	44962.95
1853.26642	44907.05
1856.41926	44973.75
1859.57004	44959.75
1862.71876	44947.95
1865.86542	44907.55
1869.01003	44907.45
1872.15258	44906.15
1875.29308	44907.15
1878.43152	44849.45
1881.56792	44863.65
1884.70227	44882.55
1887.83457	44920.95
1890.96482	44836.25
1894.09304	44780.85
1897.21921	44750.15
1900.34335	44706.75
1903.46544	44696.05
1906.58551	44747.35
1909.70353	44767.65
1912.81953	44704.65
1915.93349	44660.35
1919.04543	44615.05
1922.15534	44587.05
1925.26322	44536.15
1928.36908	44491.15
1931.47292	44464.55
1934.57473	44341.15
1937.67453	44231.15
1940.77232	44185.05
1943.86808	44049.35
1946.96184	43945.35
1950.05358	43814.65
1953.14331	43669.45
1956.23103	43518.45
1959.31675	43456.55
1962.40046	43284.25
1965.48217	43186.75
1968.56188	43039.45
1971.63959	42980.85
1974.7153	42913.95
1977.78901	42750.25
1980.86073	42632.85
1983.93046	42497.05
1986.99819	42375.15
1990.06394	42299.25
1993.1277	42139.05
1996.18947	42064.15
1999.24925	41944.65
2002.30706	41899.55
2005.36288	41769.75
2008.41672	41624.15
2011.46859	41538.05
2014.51848	41449.05
2017.56639	41294.15
2020.61233	41248.15
2023.6563	41147.35
2026.6983	41074.35
2029.73833	40984.75
2032.7764	40941.75
2035.8125	40885.05
2038.84664	40855.65
2041.87881	40811.95
2044.90903	40771.45
2047.93729	40651.35
2050.96359	40669.25
2053.98794	40611.05
2057.01034	40603.75
2060.03078	40586.45
2063.04927	40546.15
2066.06582	40488.85
2069.08042	40456.55
2072.09307	40366.25
2075.10378	40351.35
2078.11255	40302.45
2081.11938	40415.85
2084.12426	40287.15
2087.12722	40315.55
2090.12824	40274.35
2093.12732	40275.55
2096.12447	40288.65
2099.11969	40236.35
2102.11299	40236.55
2105.10435	40264.05
2108.09379	40325.85
2111.08131	40315.35
2114.0669	40310.65
2117.05057	40322.25
2120.03233	40464.25
2123.01216	40477.35
2125.99008	40572.35
2128.96609	40596.55
2131.94018	40557.45
2134.91236	40583.85
2137.88263	40695.95
2140.851	40636.55
2143.81746	40750.85
2146.78201	40727.95
2149.74466	40823.75
2152.7054	40820.25
2155.66425	40813.25
2158.6212	40777.15
2161.57625	40770.25
2164.52941	40724.35
2167.48067	40755.25
2170.43004	40709.35
2173.37752	40697.85
2176.32311	40748.55
2179.26681	40770.05
2182.20863	40759.85
2185.14856	40839.65
2188.08661	40860.85
2191.02278	40800.35
2193.95707	40801.35
2196.88948	40784.45
2199.82001	40783.95
2202.74867	40763.45
2205.67545	40761.95
2208.60037	40755.25
2211.52341	40769.75
2214.44458	40742.75
2217.36388	40663.75
2220.28132	40580.35
2223.1969	40526.35
2226.11061	40495.95
2229.02246	40354.85
2231.93245	40283.95
2234.84058	40195.05
2237.74686	40157.15
2240.65128	40123.95
2243.55385	40038.75
2246.45456	40081.65
2249.35343	40049.15
2252.25044	40038.55
2255.14561	39974.75
2258.03893	39915.45
2260.93041	39876.25
2263.82004	39797.85
2266.70783	39662.15
2269.59378	39556.75
2272.4779	39491.75
2275.36017	39440.05
2278.24061	39425.65
2281.11922	39297.35
2283.996	39238.55
2286.87094	39239.25
2289.74405	39233.45
2292.61534	39199.35
2295.4848	39104.75
2298.35243	39149.35
2301.21824	39181.15
2304.08223	39237.75
2306.94439	39214.45
2309.80474	39270.05
2312.66327	39286.45
2315.51999	39258.55
2318.37489	39252.45
2321.22797	39225.05
2324.07925	39221.85
2326.92871	39104.75
2329.77637	39101.05
2332.62222	39074.25
2335.46626	39100.25
2338.3085	39120.75
2341.14893	39125.45
2343.98756	39108.65
2346.8244	39180.45
2349.65943	39137.05
2352.49267	39180.55
2355.32411	39163.35
2358.15376	39082.35
2360.98161	39110.15
2363.80768	39051.85
2366.63195	39029.95
2369.45444	38937.35
2372.27514	38833.05
2375.09405	38825.55
2377.91118	38737.25
2380.72652	38615.55
2383.54009	38553.25
2386.35187	38440.75
2389.16188	38371.25
2391.97011	38346.95
2394.77657	38289.65
2397.58125	38199.45
2400.38416	38198.65
2403.18529	38092.35
2405.98466	38015.35
2408.78226	37969.25
2411.57809	37851.15
2414.37216	37773.05
2417.16446	37811.15
2419.955	37723.55
2422.74378	37702.85
2425.5308	37658.25
2428.31606	37677.65
2431.09956	37671.55
2433.88131	37592.75
2436.6613	37640.75
2439.43954	37610.55
2442.21603	37585.75
2444.99077	37558.75
2447.76377	37549.75
2450.53501	37499.95
2453.30451	37511.75
2456.07226	37448.75
2458.83827	37429.15
2461.60254	37413.55
2464.36507	37410.05
2467.12586	37379.45
2469.88492	37390.55
2472.64224	37465.45
2475.39782	37448.55
2478.15167	37482.95
2480.90379	37518.55
2483.65417	37549.85
2486.40283	37561.05
2489.14976	37582.15
2491.89497	37551.25
2494.63845	37639.65
2497.3802	37609.35
2500.12024	37596.05
2502.85855	37572.75
2505.59514	37518.65
2508.33002	37504.45
2511.06318	37412.75
2513.79462	37401.85
2516.52435	37348.55
2519.25237	37283.05
2521.97867	37297.15
2524.70327	37251.55
2527.42616	37243.65
2530.14734	37228.15
2532.86681	37183.75
2535.58458	37163.85
2538.30065	37187.15
2541.01501	37094.45
2543.72768	37178.05
2546.43864	37132.65
2549.14791	37094.65
2551.85548	37005.85
2554.56136	36946.95
2557.26554	36884.95
2559.96803	36832.95
2562.66883	36774.95
2565.36794	36806.95
2568.06536	36769.45
2570.7611	36700.65
2573.45514	36668.35
2576.14751	36651.15
2578.83819	36613.65
2581.52719	36678.05
2584.21451	36563.15
2586.90015	36603.15
2589.58411	36533.25
2592.2664	36590.95
2594.94701	36519.75
2597.62594	36537.35
2600.30321	36504.85
2602.9788	36528.15
2605.65273	36477.85
2608.32498	36484.85
2610.99557	36508.95
2613.66449	36515.85
2616.33175	36507.55
2618.99734	36521.55
2621.66128	36461.65
2624.32355	36475.95
2626.98416	36486.35
2629.64311	36502.95
2632.30041	36491.95
2634.95605	36471.25
2637.61004	36396.75
2640.26238	36315.95
2642.91306	36272.25
2645.56209	36189.35
2648.20948	36212.05
2650.85521	36193.75
2653.4993	36178.95
2656.14175	36136.95
2658.78255	36209.15
2661.42171	36236.25
2664.05923	36316.95
2666.6951	36298.85
2669.32934	36337.55
2671.96194	36340.55
2674.59291	36359.45
2677.22224	36379.95
2679.84993	36409.85
2682.476	36324.25
2685.10043	36299.65
2687.72324	36294.75
2690.34441	36308.75
2692.96396	36264.25
2695.58188	36335.95
2698.19818	36183.05
2700.81285	36161.95
2703.4259	36132.45
2706.03733	36192.05
2708.64714	36196.85
2711.25533	36224.45
2713.86191	36169.75
2716.46687	36283.95
2719.07021	36234.55
2721.67194	36285.55
2724.27206	36225.55
2726.87057	36318.65
2729.46747	36268.05
2732.06276	36242.95
2734.65644	36255.05
2737.24852	36314.75
2739.83899	36299.85
2742.42786	36342.15
2745.01513	36262.15
2747.60079	36244.35
2750.18486	36261.15
2752.76733	36228.85
2755.3482	36175.75
2757.92747	36157.75
2760.50515	36112.15
2763.08123	36165.05
2765.65573	36086.85
2768.22863	36145.75
2770.79994	36084.25
2773.36967	36086.95
2775.9378	36126.15
2778.50435	36169.15
2781.06932	36081.45
2783.6327	36055.25
2786.1945	36024.25
2788.75471	35984.05
2791.31335	35942.15
2793.87041	35889.25
2796.42589	35805.25
2798.97979	35828.15
2801.53212	35677.95
2804.08288	35663.25
2806.63206	35589.85
2809.17967	35549.85
2811.72571	35477.75
2814.27018	35327.95
2816.81308	35303.05
2819.35442	35317.65
2821.89419	35233.05
2824.43239	35318.65
2826.96904	35308.65
2829.50412	35341.15
2832.03763	35241.65
2834.56959	35238.75
2837.1	35148.85
2839.62884	35088.15
2842.15613	35046.85
2844.68186	35077.35
2847.20604	35002.95
2849.72867	35000.75
2852.24974	34905.15
2854.76927	34910.25
2857.28724	34894.35
2859.80367	34897.65
2862.31855	34820.85
2864.83189	34787.65
2867.34368	34748.75
2869.85393	34739.25
2872.36264	34758.05
2874.8698	34737.15
2877.37543	34710.75
2879.87952	34690.25
2882.38207	34693.85
2884.88308	34692.15
2887.38256	34705.15
2889.88051	34680.65
2892.37692	34700.05
2894.8718	34734.25
2897.36515	34789.95
2899.85698	34795.85
2902.34727	34788.75
2904.83604	34860.65
2907.32328	34875.25
2909.809	34872.65
2912.29319	34903.45
2914.77587	34866.35
2917.25702	34894.05
2919.73665	34842.75
2922.21476	34839.45
2924.69136	34787.65
2927.16644	34760.55
2929.64	34741.95
2932.11205	34660.05
2934.58258	34584.55
2937.05161	34631.25
2939.51912	34625.35
2941.98513	34629.95
2944.44962	34594.75
2946.91261	34565.75
2949.37409	34655.05
2951.83407	34600.65
2954.29254	34588.45
2956.74951	34541.35
2959.20498	34558.95
2961.65895	34484.65
2964.11142	34530.25
2966.56239	34499.65
2969.01186	34450.35
2971.45984	34355.65
2973.90632	34314.95
2976.35131	34285.25
2978.7948	34213.85
2981.23681	34158.55
2983.67732	34095.75
2986.11635	34074.95
2988.55388	34007.45
2990.98993	33955.85
2993.4245	33906.95
2995.85758	33837.75
2998.28917	33769.45
3000.71928	33705.75
3003.14791	33646.75
3005.57506	33593.55
3008.00073	33495.15
3010.42493	33485.15
3012.84764	33419.85
3015.26888	33392.85
3017.68865	33361.95
3020.10694	33317.35
3022.52376	33220.65
3024.9391	33158.05
3027.35298	33153.35
3029.76539	33132.95
3032.17632	33068.75
3034.5858	33039.65
3036.9938	33052.05
3039.40034	33012.05
3041.80542	33045.35
3044.20903	32957.65
3046.61118	32929.75
3049.01187	32775.25
3051.4111	32780.35
3053.80888	32691.45
3056.20519	32623.25
3058.60005	32544.85
3060.99345	32498.55
3063.3854	32408.75
3065.7759	32230.25
3068.16494	32169.55
3070.55254	32065.65
3072.93868	32029.45
3075.32338	31901.85
3077.70662	31830.05
3080.08842	31738.45
3082.46878	31746.35
3084.84769	31678.55
3087.22515	31657.95
3089.60118	31616.15
3091.97576	31604.05
3094.3489	31649.85
3096.72061	31600.25
3099.09087	31639.45
3101.4597	31600.35
3103.82709	31592.45
3106.19305	31559.95
3108.55757	31537.65
3110.92066	31483.15
3113.28232	31443.55
3115.64255	31309.35
3118.00134	31284.75
3120.35871	31175.35
3122.71466	31099.35
3125.06917	31066.25
3127.42226	30999.05
3129.77393	31067.35
3132.12417	30946.05
3134.47299	30963.05
3136.82039	30904.85
3139.16636	30879.95
3141.51092	30883.65
3143.85406	30878.65
3146.19579	30872.75
3148.53609	30871.25
3150.87499	30907.35
3153.21246	30906.85
3155.54853	30945.75
3157.88318	30881.65
3160.21642	30917.75
3162.54826	30897.55
3164.87868	30829.35
3167.2077	30796.05
3169.5353	30750.85
3171.86151	30746.65
3174.18631	30719.85
3176.5097	30744.25
3178.83169	30692.75
3181.15228	30684.75
3183.47147	30574.85
3185.78926	30556.35
3188.10565	30576.35
3190.42065	30543.55
3192.73424	30535.75
3195.04645	30476.05
3197.35725	30440.05
3199.66667	30450.35
3201.97469	30469.85
3204.28132	30432.35
3206.58656	30436.25
3208.8904	30414.05
3211.19287	30435.15
3213.49394	30424.95
3215.79363	30468.25
3218.09193	30443.75
3220.38884	30506.15
3222.68438	30488.25
3224.97853	30410.45
3227.2713	30432.75
3229.56269	30395.05
3231.8527	30382.45
3234.14133	30313.55
3236.42858	30268.95
3238.71446	30179.25
3240.99896	30150.65
3243.28209	30193.25
3245.56384	30106.65
3247.84423	30078.55
3250.12324	30006.45
3252.40088	30054.75
3254.67715	30033.55
3256.95205	30032.15
3259.22558	30003.65
3261.49775	29960.15
3263.76855	29949.85
3266.03799	29893.15
3268.30606	29826.35
3270.57277	29781.65
3272.83812	29730.35
3275.10211	29677.75
3277.36474	29639.65
3279.62601	29636.35
3281.88593	29582.95
3284.14448	29616.65
3286.40168	29617.45
3288.65753	29556.45
3290.91202	29517.55
3293.16516	29480.05
3295.41695	29444.35
3297.66738	29253.35
3299.91647	29098.85
3302.16421	28958.25
3304.4106	28852.55
3306.65564	28655.45
3308.89933	28458.25
3311.14169	28335.25
3313.38269	28111.95
3315.62236	27986.35
3317.86068	27744.15
3320.09766	27492.95
3322.3333	27342.35
3324.5676	27261.05
3326.80056	26824.15
3329.03219	26657.05
3331.26248	7.25
3333.49143	0.55
3335.71905	-0.65
