Data from AgNPs_FTO_APTES_UA_20uM_CRN_0uM_R6G_10uM_NaF_0.1M_Addition_RamanShift__34__11-29-21-969.txt Node

Date: Thu Feb 17 11:29:21 GMT 2022
User: TCL
Spectrometer: QEP01345
Trigger mode: 4
Integration Time (sec): 7.000000E0
Scans to average: 10
Electric dark correction enabled: true
Nonlinearity correction enabled: false
Boxcar width: 0
XAxis mode: Raman Shifts
Number of Pixels in Spectrum: 1044
>>>>>Begin Spectral Data<<<<<
46.04893	-0.05
50.45542	-0.75
54.85868	-3.05
59.25871	-0.75
63.6555	99.95
68.04907	102.35
72.43941	107.45
76.82654	110.15
81.21044	111.65
85.59113	118.65
89.96862	119.05
94.34289	122.55
98.71396	127.05
103.08183	127.55
107.4465	135.95
111.80798	133.65
116.16626	142.65
120.52136	145.55
124.87327	155.35
129.222	164.65
133.56755	174.75
137.90993	186.35
142.24913	199.55
146.58517	234.55
150.91804	268.05
155.24774	323.35
159.57429	402.05
163.89768	522.25
168.21792	693.65
172.53501	960.65
176.84895	1343.65
181.15975	1896.95
185.46741	2664.05
189.77193	3674.25
194.07331	4919.55
198.37157	6338.45
202.6667	7815.15
206.9587	9274.25
211.24758	10753.95
215.53334	12220.25
219.81599	13766.75
224.09553	15489.55
228.37195	17406.35
232.64527	19500.35
236.91549	21717.25
241.18261	23915.35
245.44663	25974.55
249.70755	27741.05
253.96539	29284.05
258.22014	30558.65
262.4718	31615.85
266.72039	32304.25
270.96589	32683.35
275.20832	32585.55
279.44768	32276.75
283.68397	31863.65
287.91719	31412.85
292.14735	31143.65
296.37445	31094.35
300.59849	31169.75
304.81948	31383.65
309.03742	31667.55
313.25231	31821.65
317.46415	31865.95
321.67296	31770.55
325.87872	31598.25
330.08145	31624.15
334.28114	31638.95
338.47781	31845.75
342.67145	32288.25
346.86207	32880.75
351.04966	33485.55
355.23424	34029.15
359.4158	34417.15
363.59435	34668.05
367.76989	34805.05
371.94243	34903.35
376.11196	35072.75
380.27849	35258.15
384.44203	35631.15
388.60257	35927.35
392.76012	36204.55
396.91468	36508.05
401.06626	36937.35
405.21485	37223.15
409.36047	37198.95
413.50311	36971.05
417.64277	37004.75
421.77947	37315.95
425.9132	37610.85
430.04396	37953.35
434.17176	38295.65
438.2966	38703.15
442.41849	39707.75
446.53742	41293.05
450.6534	42947.25
454.76644	43724.75
458.87653	43512.55
462.98368	42581.75
467.08789	41523.55
471.18916	40447.95
475.2875	39211.05
479.38291	38301.05
483.4754	37645.15
487.56496	37222.35
491.6516	37054.05
495.73531	36998.25
499.81612	37137.25
503.89401	37454.65
507.96899	37635.15
512.04106	37544.35
516.11023	37363.65
520.1765	37187.45
524.23987	37347.75
528.30034	37576.15
532.35792	37646.15
536.41261	37122.15
540.46441	36542.85
544.51333	36249.35
548.55936	36358.55
552.60252	37079.95
556.64279	38294.35
560.6802	39216.45
564.71473	39352.05
568.7464	39305.75
572.7752	39964.55
576.80114	41054.35
580.82422	42571.05
584.84444	45114.35
588.86181	49293.75
592.87633	54260.95
596.888	55808.85
600.89682	51555.55
604.9028	47392.35
608.90594	47723.85
612.90624	49720.95
616.90371	47207.35
620.89834	41448.05
624.89015	38730.15
628.87913	38370.25
632.86528	38418.95
636.84862	38128.45
640.82913	37363.15
644.80683	36529.65
648.78172	36135.55
652.75379	36245.95
656.72306	36723.55
660.68952	37380.55
664.65319	37257.75
668.61405	36660.25
672.57211	36663.75
676.52738	36985.15
680.47986	36952.35
684.42955	36545.45
688.37646	36455.05
692.32058	36761.15
696.26192	37419.75
700.20048	38121.35
704.13626	38439.15
708.06928	38199.35
711.99952	38029.05
715.927	38218.65
719.85171	38511.15
723.77365	38430.95
727.69284	37866.75
731.60928	37394.25
735.52295	37341.55
739.43388	37512.65
743.34206	37700.35
747.24749	37890.85
751.15017	38225.85
755.05012	38671.15
758.94733	39463.45
762.8418	40901.35
766.73354	43133.55
770.62254	45267.85
774.50882	45600.85
778.39237	44124.45
782.27321	41970.55
786.15132	40044.55
790.02671	38855.25
793.89938	38182.95
797.76935	37881.85
801.6366	37758.65
805.50115	37704.65
809.36299	37578.65
813.22213	37310.15
817.07857	37104.15
820.93231	36936.05
824.78336	36806.45
828.63172	36790.55
832.47738	36748.95
836.32036	36898.25
840.16066	37059.65
843.99827	37115.15
847.8332	37138.35
851.66546	37196.15
855.49504	37236.65
859.32195	37169.35
863.1462	37126.75
866.96777	37053.85
870.78668	36972.75
874.60293	37077.95
878.41652	37194.85
882.22745	37360.85
886.03573	37523.65
889.84136	37436.15
893.64433	37246.25
897.44466	37057.35
901.24235	36949.55
905.0374	36878.05
908.8298	36774.35
912.61957	36821.75
916.40671	37059.55
920.19121	37431.85
923.97308	37900.55
927.75233	38192.45
931.52895	37960.45
935.30295	37465.95
939.07433	36876.75
942.84309	36575.45
946.60924	36515.45
950.37278	36496.65
954.13371	36491.55
957.89203	36373.05
961.64774	36348.25
965.40086	36335.25
969.15137	36401.35
972.89929	36280.35
976.64461	36358.65
980.38733	36387.25
984.12747	36566.15
987.86502	36754.15
991.59999	37092.45
995.33237	37554.95
999.06217	38394.85
1002.78939	39420.55
1006.51404	40372.55
1010.23611	41176.45
1013.95561	41778.45
1017.67255	41996.35
1021.38692	41480.55
1025.09872	40470.15
1028.80796	39966.25
1032.51465	40230.45
1036.21877	40757.05
1039.92035	40862.85
1043.61937	40611.15
1047.31584	40178.75
1051.00976	39553.95
1054.70114	39385.95
1058.38998	39354.05
1062.07627	39379.95
1065.76003	39620.15
1069.44126	39985.35
1073.11995	40612.45
1076.79611	41174.45
1080.46974	41597.55
1084.14085	42024.05
1087.80943	42476.55
1091.47549	42654.75
1095.13903	42427.25
1098.80005	41722.25
1102.45857	41024.85
1106.11456	40591.65
1109.76805	40598.25
1113.41903	40789.95
1117.06751	41023.05
1120.71348	41356.75
1124.35696	41632.25
1127.99793	41920.65
1131.63641	42027.45
1135.2724	41846.25
1138.90589	41715.45
1142.5369	41843.25
1146.16542	42144.95
1149.79145	42587.35
1153.415	42852.75
1157.03607	43134.55
1160.65467	44042.35
1164.27079	45680.85
1167.88443	47928.65
1171.49561	50590.85
1175.10432	54023.45
1178.71056	58430.75
1182.31434	62743.35
1185.91565	64123.35
1189.51451	62260.15
1193.11091	59479.65
1196.70485	56969.45
1200.29634	54890.55
1203.88538	53449.75
1207.47197	52590.65
1211.05612	51914.65
1214.63782	51261.15
1218.21708	50751.65
1221.79391	50645.55
1225.36829	51014.45
1228.94024	51010.65
1232.50976	49961.15
1236.07685	48390.05
1239.6415	47205.65
1243.20374	46840.25
1246.76355	47034.25
1250.32093	47674.55
1253.8759	48557.65
1257.42845	49746.45
1260.97859	51079.65
1264.52631	52565.05
1268.07163	54127.85
1271.61453	55652.15
1275.15503	57075.15
1278.69312	58568.35
1282.22882	60383.45
1285.76211	62638.15
1289.29301	65420.35
1292.82151	68411.95
1296.34761	72087.35
1299.87133	76594.75
1303.39266	81707.15
1306.9116	86874.95
1310.42815	91546.55
1313.94233	94347.35
1317.45412	93163.05
1320.96354	89098.45
1324.47058	84645.45
1327.97525	81003.05
1331.47754	78419.15
1334.97747	76715.25
1338.47502	75214.35
1341.97022	73694.95
1345.46305	72183.15
1348.95352	71926.35
1352.44163	73934.35
1355.92738	78519.45
1359.41078	84654.25
1362.89183	88910.75
1366.37053	88358.55
1369.84688	81240.75
1373.32088	71171.95
1376.79254	64398.35
1380.26186	62178.75
1383.72883	62174.05
1387.19347	61952.95
1390.65578	60888.05
1394.11575	60606.15
1397.57339	61431.35
1401.0287	62692.25
1404.48168	63521.15
1407.93234	63774.95
1411.38068	63025.35
1414.82669	61859.25
1418.27039	60251.75
1421.71177	58360.95
1425.15083	56655.15
1428.58758	56131.95
1432.02203	56991.45
1435.45416	58763.25
1438.88399	60239.55
1442.31151	60989.25
1445.73673	60966.85
1449.15965	60611.25
1452.58027	59758.95
1455.9986	58811.45
1459.41463	58587.55
1462.82837	59502.05
1466.23982	61010.35
1469.64898	62632.95
1473.05586	63800.95
1476.46045	64555.85
1479.86276	64565.85
1483.26279	64252.95
1486.66054	64161.95
1490.05602	64558.65
1493.44922	65006.35
1496.84016	64972.05
1500.22882	64807.55
1503.61521	65013.45
1506.99934	65647.65
1510.38121	66236.35
1513.76081	66109.55
1517.13816	64757.15
1520.51324	63095.85
1523.88607	62221.15
1527.25665	62532.95
1530.62498	63337.15
1533.99105	63542.95
1537.35488	63019.05
1540.71647	61709.55
1544.07581	60146.95
1547.4329	58414.45
1550.78776	56849.45
1554.14038	55535.05
1557.49077	54624.55
1560.83892	54115.75
1564.18484	54016.05
1567.52853	54188.85
1570.86999	54710.45
1574.20922	55484.75
1577.54624	56228.65
1580.88103	56321.35
1584.2136	56747.75
1587.54395	58840.05
1590.87208	62945.65
1594.19801	68500.25
1597.52172	74296.45
1600.84321	77101.85
1604.16251	74420.25
1607.47959	67602.15
1610.79447	59853.05
1614.10715	53517.55
1617.41763	49294.05
1620.7259	46929.95
1624.03199	46035.45
1627.33587	46350.15
1630.63757	47835.35
1633.93707	50917.15
1637.23439	56425.85
1640.52951	65033.95
1643.82246	75835.85
1647.11321	84224.35
1650.40179	84290.55
1653.68819	75483.85
1656.97241	63377.85
1660.25446	53412.85
1663.53433	47103.45
1666.81203	43440.65
1670.08756	41356.55
1673.36092	40126.15
1676.63211	39231.75
1679.90115	38628.55
1683.16801	38089.55
1686.43272	37741.05
1689.69527	37529.05
1692.95567	37296.05
1696.2139	37213.15
1699.46999	37152.25
1702.72392	37040.25
1705.97571	36988.95
1709.22535	36928.85
1712.47284	36867.35
1715.71819	36948.95
1718.96139	36930.15
1722.20246	36832.75
1725.44139	36688.45
1728.67818	36487.95
1731.91284	36272.05
1735.14537	36145.45
1738.37576	35962.35
1741.60403	35905.45
1744.83017	35781.35
1748.05418	35689.75
1751.27607	35665.75
1754.49584	35592.05
1757.71349	35607.55
1760.92903	35593.35
1764.14244	35543.35
1767.35375	35517.75
1770.56294	35508.75
1773.77002	35496.75
1776.97499	35422.85
1780.17785	35415.25
1783.37861	35400.05
1786.57727	35291.65
1789.77382	35220.45
1792.96828	35202.05
1796.16064	35173.55
1799.3509	35123.65
1802.53907	35032.95
1805.72514	35036.85
1808.90913	34926.25
1812.09102	34861.75
1815.27083	34851.75
1818.44856	34834.55
1821.6242	34734.05
1824.79776	34716.15
1827.96924	34675.45
1831.13864	34672.65
1834.30597	34652.75
1837.47122	34659.15
1840.6344	34552.75
1843.7955	34608.65
1846.95454	34599.15
1850.11151	34574.55
1853.26642	34569.25
1856.41926	34572.25
1859.57004	34592.25
1862.71876	34533.65
1865.86542	34511.85
1869.01003	34455.45
1872.15258	34452.45
1875.29308	34436.75
1878.43152	34401.25
1881.56792	34445.15
1884.70227	34405.85
1887.83457	34451.75
1890.96482	34420.85
1894.09304	34365.25
1897.21921	34343.95
1900.34335	34236.85
1903.46544	34232.25
1906.58551	34249.45
1909.70353	34265.95
1912.81953	34222.35
1915.93349	34218.65
1919.04543	34142.25
1922.15534	34053.85
1925.26322	33973.75
1928.36908	33950.25
1931.47292	33941.25
1934.57473	33782.25
1937.67453	33714.85
1940.77232	33655.55
1943.86808	33600.95
1946.96184	33504.65
1950.05358	33440.35
1953.14331	33345.75
1956.23103	33332.55
1959.31675	33250.75
1962.40046	33119.85
1965.48217	33039.15
1968.56188	32903.85
1971.63959	32821.25
1974.7153	32771.05
1977.78901	32652.45
1980.86073	32593.85
1983.93046	32438.35
1986.99819	32375.15
1990.06394	32319.95
1993.1277	32278.85
1996.18947	32198.65
1999.24925	32126.15
2002.30706	32029.25
2005.36288	31966.55
2008.41672	31871.05
2011.46859	31776.35
2014.51848	31718.95
2017.56639	31605.05
2020.61233	31582.05
2023.6563	31470.95
2026.6983	31418.25
2029.73833	31382.25
2032.7764	31303.05
2035.8125	31286.45
2038.84664	31234.65
2041.87881	31230.65
2044.90903	31135.05
2047.93729	31125.45
2050.96359	31070.85
2053.98794	31053.95
2057.01034	31093.85
2060.03078	31074.15
2063.04927	31086.95
2066.06582	31054.25
2069.08042	31048.15
2072.09307	31019.35
2075.10378	30940.85
2078.11255	30912.25
2081.11938	30940.55
2084.12426	30889.45
2087.12722	30848.85
2090.12824	30909.75
2093.12732	30928.55
2096.12447	30938.95
2099.11969	30889.75
2102.11299	30911.65
2105.10435	30977.05
2108.09379	30980.15
2111.08131	31002.45
2114.0669	31007.15
2117.05057	30964.15
2120.03233	31005.45
2123.01216	31017.05
2125.99008	31119.55
2128.96609	31147.25
2131.94018	31156.55
2134.91236	31218.35
2137.88263	31263.55
2140.851	31235.85
2143.81746	31285.65
2146.78201	31261.75
2149.74466	31338.45
2152.7054	31351.85
2155.66425	31351.15
2158.6212	31365.55
2161.57625	31320.35
2164.52941	31349.45
2167.48067	31290.95
2170.43004	31260.25
2173.37752	31317.25
2176.32311	31353.65
2179.26681	31347.15
2182.20863	31359.15
2185.14856	31377.95
2188.08661	31398.75
2191.02278	31389.25
2193.95707	31365.45
2196.88948	31330.05
2199.82001	31371.35
2202.74867	31343.55
2205.67545	31296.75
2208.60037	31311.05
2211.52341	31222.85
2214.44458	31173.65
2217.36388	31133.75
2220.28132	31131.55
2223.1969	31089.65
2226.11061	30983.55
2229.02246	30929.15
2231.93245	30899.45
2234.84058	30940.65
2237.74686	30942.45
2240.65128	30880.25
2243.55385	30844.25
2246.45456	30810.55
2249.35343	30718.65
2252.25044	30691.75
2255.14561	30630.15
2258.03893	30610.45
2260.93041	30501.25
2263.82004	30447.75
2266.70783	30379.95
2269.59378	30319.25
2272.4779	30254.55
2275.36017	30215.05
2278.24061	30203.05
2281.11922	30077.65
2283.996	30100.15
2286.87094	30082.55
2289.74405	30041.55
2292.61534	30005.75
2295.4848	30041.65
2298.35243	30051.65
2301.21824	29990.75
2304.08223	30003.15
2306.94439	30028.65
2309.80474	30058.25
2312.66327	30049.35
2315.51999	30005.75
2318.37489	30004.25
2321.22797	29942.15
2324.07925	29985.95
2326.92871	29890.55
2329.77637	29847.75
2332.62222	29843.35
2335.46626	29877.45
2338.3085	29837.65
2341.14893	29821.55
2343.98756	29773.45
2346.8244	29774.75
2349.65943	29821.85
2352.49267	29771.05
2355.32411	29809.15
2358.15376	29777.55
2360.98161	29763.85
2363.80768	29736.45
2366.63195	29697.95
2369.45444	29685.15
2372.27514	29638.25
2375.09405	29626.55
2377.91118	29540.65
2380.72652	29479.85
2383.54009	29438.95
2386.35187	29420.85
2389.16188	29273.75
2391.97011	29226.75
2394.77657	29278.95
2397.58125	29231.15
2400.38416	29176.95
2403.18529	29113.65
2405.98466	29109.75
2408.78226	29074.95
2411.57809	29017.15
2414.37216	29001.95
2417.16446	28981.45
2419.955	29007.45
2422.74378	28950.45
2425.5308	28925.55
2428.31606	28965.85
2431.09956	28982.95
2433.88131	28972.25
2436.6613	28903.55
2439.43954	28892.55
2442.21603	28910.75
2444.99077	28870.95
2447.76377	28836.85
2450.53501	28857.15
2453.30451	28914.95
2456.07226	28859.35
2458.83827	28848.75
2461.60254	28825.85
2464.36507	28802.55
2467.12586	28819.65
2469.88492	28832.35
2472.64224	28809.75
2475.39782	28828.05
2478.15167	28866.05
2480.90379	28861.25
2483.65417	28898.25
2486.40283	28874.55
2489.14976	28902.35
2491.89497	28853.75
2494.63845	28905.55
2497.3802	28856.65
2500.12024	28895.25
2502.85855	28842.65
2505.59514	28846.35
2508.33002	28771.95
2511.06318	28743.25
2513.79462	28735.55
2516.52435	28735.45
2519.25237	28680.15
2521.97867	28718.85
2524.70327	28699.65
2527.42616	28643.85
2530.14734	28647.45
2532.86681	28586.95
2535.58458	28613.05
2538.30065	28598.55
2541.01501	28640.45
2543.72768	28599.85
2546.43864	28568.55
2549.14791	28502.45
2551.85548	28504.65
2554.56136	28442.15
2557.26554	28385.45
2559.96803	28378.25
2562.66883	28364.35
2565.36794	28326.35
2568.06536	28364.05
2570.7611	28310.15
2573.45514	28327.05
2576.14751	28226.65
2578.83819	28230.15
2581.52719	28291.45
2584.21451	28182.75
2586.90015	28217.55
2589.58411	28192.05
2592.2664	28153.45
2594.94701	28134.15
2597.62594	28162.25
2600.30321	28113.75
2602.9788	28151.65
2605.65273	28062.85
2608.32498	28134.55
2610.99557	28102.55
2613.66449	28141.35
2616.33175	28061.05
2618.99734	28088.05
2621.66128	28047.85
2624.32355	27998.95
2626.98416	28012.45
2629.64311	27970.65
2632.30041	27972.95
2634.95605	27945.05
2637.61004	27899.15
2640.26238	27865.75
2642.91306	27849.15
2645.56209	27845.65
2648.20948	27860.75
2650.85521	27815.35
2653.4993	27866.75
2656.14175	27904.75
2658.78255	27870.35
2661.42171	27964.65
2664.05923	27988.35
2666.6951	28013.15
2669.32934	27981.95
2671.96194	27977.75
2674.59291	28023.95
2677.22224	27998.05
2679.84993	27994.45
2682.476	27932.75
2685.10043	27975.45
2687.72324	27915.35
2690.34441	27959.95
2692.96396	27896.45
2695.58188	27941.65
2698.19818	27905.45
2700.81285	27936.85
2703.4259	27896.15
2706.03733	27928.35
2708.64714	27929.95
2711.25533	27983.35
2713.86191	28009.65
2716.46687	28110.75
2719.07021	28088.05
2721.67194	28136.45
2724.27206	28096.15
2726.87057	28120.25
2729.46747	28137.35
2732.06276	28135.85
2734.65644	28143.05
2737.24852	28143.85
2739.83899	28137.55
2742.42786	28149.15
2745.01513	28097.55
2747.60079	28049.65
2750.18486	28076.55
2752.76733	28118.65
2755.3482	28078.85
2757.92747	28012.15
2760.50515	27966.25
2763.08123	27982.55
2765.65573	27982.25
2768.22863	27946.45
2770.79994	27911.65
2773.36967	27920.85
2775.9378	27988.95
2778.50435	27971.45
2781.06932	27961.15
2783.6327	27943.95
2786.1945	27959.65
2788.75471	27887.25
2791.31335	27832.45
2793.87041	27812.65
2796.42589	27751.45
2798.97979	27738.95
2801.53212	27643.95
2804.08288	27624.65
2806.63206	27577.85
2809.17967	27519.45
2811.72571	27409.05
2814.27018	27352.55
2816.81308	27305.95
2819.35442	27304.15
2821.89419	27277.55
2824.43239	27266.75
2826.96904	27287.05
2829.50412	27301.35
2832.03763	27202.75
2834.56959	27190.05
2837.1	27155.55
2839.62884	27140.45
2842.15613	27124.45
2844.68186	27179.75
2847.20604	27140.55
2849.72867	27111.55
2852.24974	27035.05
2854.76927	27047.25
2857.28724	27006.05
2859.80367	26969.75
2862.31855	26949.45
2864.83189	26954.75
2867.34368	26911.65
2869.85393	26902.35
2872.36264	26858.05
2874.8698	26833.65
2877.37543	26817.45
2879.87952	26802.75
2882.38207	26860.85
2884.88308	26817.05
2887.38256	26869.85
2889.88051	26892.15
2892.37692	26903.95
2894.8718	26871.55
2897.36515	26941.35
2899.85698	26902.65
2902.34727	27007.95
2904.83604	26980.75
2907.32328	27037.75
2909.809	27032.55
2912.29319	27069.45
2914.77587	27015.25
2917.25702	27079.95
2919.73665	27044.25
2922.21476	27036.15
2924.69136	26980.15
2927.16644	26977.45
2929.64	26947.05
2932.11205	26934.55
2934.58258	26855.55
2937.05161	26917.25
2939.51912	26942.75
2941.98513	26875.35
2944.44962	26831.85
2946.91261	26820.95
2949.37409	26847.75
2951.83407	26843.75
2954.29254	26838.55
2956.74951	26862.85
2959.20498	26880.65
2961.65895	26874.85
2964.11142	26868.05
2966.56239	26821.95
2969.01186	26811.55
2971.45984	26704.45
2973.90632	26615.55
2976.35131	26598.85
2978.7948	26558.45
2981.23681	26508.75
2983.67732	26465.05
2986.11635	26433.35
2988.55388	26312.15
2990.98993	26333.45
2993.4245	26284.65
2995.85758	26195.45
2998.28917	26122.75
3000.71928	26082.35
3003.14791	26058.35
3005.57506	26076.85
3008.00073	25967.05
3010.42493	25992.55
3012.84764	25946.05
3015.26888	25945.25
3017.68865	25904.75
3020.10694	25859.65
3022.52376	25748.55
3024.9391	25737.05
3027.35298	25723.25
3029.76539	25681.75
3032.17632	25678.55
3034.5858	25636.75
3036.9938	25603.25
3039.40034	25598.15
3041.80542	25597.95
3044.20903	25577.05
3046.61118	25568.35
3049.01187	25462.15
3051.4111	25452.35
3053.80888	25390.75
3056.20519	25375.55
3058.60005	25278.65
3060.99345	25292.05
3063.3854	25213.35
3065.7759	25128.35
3068.16494	25094.35
3070.55254	25009.85
3072.93868	24950.35
3075.32338	24887.45
3077.70662	24879.25
3080.08842	24798.55
3082.46878	24753.55
3084.84769	24730.25
3087.22515	24705.25
3089.60118	24678.95
3091.97576	24662.45
3094.3489	24712.85
3096.72061	24703.05
3099.09087	24676.25
3101.4597	24666.55
3103.82709	24661.55
3106.19305	24629.35
3108.55757	24674.15
3110.92066	24605.95
3113.28232	24571.25
3115.64255	24505.05
3118.00134	24410.25
3120.35871	24352.85
3122.71466	24296.75
3125.06917	24260.95
3127.42226	24234.65
3129.77393	24249.75
3132.12417	24195.75
3134.47299	24193.85
3136.82039	24146.85
3139.16636	24115.55
3141.51092	24130.25
3143.85406	24131.75
3146.19579	24112.15
3148.53609	24132.15
3150.87499	24124.85
3153.21246	24149.65
3155.54853	24180.55
3157.88318	24109.75
3160.21642	24146.05
3162.54826	24096.05
3164.87868	24058.25
3167.2077	24049.15
3169.5353	24054.65
3171.86151	24050.85
3174.18631	24087.95
3176.5097	24120.15
3178.83169	24071.05
3181.15228	24035.75
3183.47147	23922.05
3185.78926	23915.85
3188.10565	23863.05
3190.42065	23838.05
3192.73424	23789.25
3195.04645	23778.15
3197.35725	23760.85
3199.66667	23749.55
3201.97469	23780.95
3204.28132	23756.15
3206.58656	23740.35
3208.8904	23765.75
3211.19287	23743.65
3213.49394	23705.45
3215.79363	23760.75
3218.09193	23786.65
3220.38884	23820.55
3222.68438	23820.45
3224.97853	23749.45
3227.2713	23697.05
3229.56269	23666.15
3231.8527	23688.85
3234.14133	23643.25
3236.42858	23613.35
3238.71446	23585.85
3240.99896	23541.35
3243.28209	23582.55
3245.56384	23495.05
3247.84423	23508.25
3250.12324	23453.55
3252.40088	23445.35
3254.67715	23434.35
3256.95205	23387.85
3259.22558	23381.65
3261.49775	23387.75
3263.76855	23321.65
3266.03799	23256.55
3268.30606	23248.35
3270.57277	23181.35
3272.83812	23171.55
3275.10211	23112.65
3277.36474	23094.25
3279.62601	23121.25
3281.88593	23063.15
3284.14448	23094.85
3286.40168	23077.45
3288.65753	23054.15
3290.91202	23040.95
3293.16516	23009.25
3295.41695	23005.35
3297.66738	22887.15
3299.91647	22746.25
3302.16421	22621.05
3304.4106	22485.45
3306.65564	22358.25
3308.89933	22233.75
3311.14169	22053.65
3313.38269	21907.45
3315.62236	21800.05
3317.86068	21539.75
3320.09766	21374.45
3322.3333	21257.05
3324.5676	21199.15
3326.80056	20835.55
3329.03219	20685.45
3331.26248	4.85
3333.49143	0.85
3335.71905	-1.05
