Data from AgNPs_FTO_APTES_UA_20uM_CRN_10uM_R6G_10uM_NaF_0.1M_Addition_RamanShift__4__14-15-02-185.txt Node

Date: Thu Feb 17 14:15:02 GMT 2022
User: TCL
Spectrometer: QEP01345
Trigger mode: 4
Integration Time (sec): 7.000000E0
Scans to average: 10
Electric dark correction enabled: true
Nonlinearity correction enabled: false
Boxcar width: 0
XAxis mode: Raman Shifts
Number of Pixels in Spectrum: 1044
>>>>>Begin Spectral Data<<<<<
46.04893	-0.4125
50.45542	-1.2125
54.85868	-2.8125
59.25871	-0.8125
63.6555	116.0875
68.04907	116.7875
72.43941	129.1875
76.82654	128.6875
81.21044	130.4875
85.59113	141.2875
89.96862	140.6875
94.34289	144.9875
98.71396	147.7875
103.08183	152.7875
107.4465	159.1875
111.80798	162.8875
116.16626	167.9875
120.52136	177.0875
124.87327	183.4875
129.222	196.9875
133.56755	211.6875
137.90993	226.9875
142.24913	250.1875
146.58517	285.8875
150.91804	335.2875
155.24774	403.5875
159.57429	511.1875
163.89768	657.8875
168.21792	886.1875
172.53501	1217.8875
176.84895	1716.6875
181.15975	2418.6875
185.46741	3409.0875
189.77193	4720.4875
194.07331	6335.8875
198.37157	8166.6875
202.6667	10126.4875
206.9587	12078.1875
211.24758	13963.6875
215.53334	15850.0875
219.81599	17845.2875
224.09553	20057.9875
228.37195	22474.5875
232.64527	25164.2875
236.91549	27966.5875
241.18261	30858.9875
245.44663	33543.9875
249.70755	35959.4875
253.96539	38065.4875
258.22014	39883.3875
262.4718	41368.6875
266.72039	42398.7875
270.96589	42978.5875
275.20832	43072.6875
279.44768	42806.6875
283.68397	42377.7875
287.91719	42023.7875
292.14735	41782.8875
296.37445	41743.2875
300.59849	41890.7875
304.81948	42127.7875
309.03742	42197.1875
313.25231	42121.3875
317.46415	41589.2875
321.67296	40964.2875
325.87872	40401.8875
330.08145	40101.7875
334.28114	40118.8875
338.47781	40432.1875
342.67145	40921.6875
346.86207	41598.0875
351.04966	42302.0875
355.23424	43035.7875
359.4158	43630.5875
363.59435	44091.5875
367.76989	44425.6875
371.94243	44692.4875
376.11196	44949.4875
380.27849	45191.9875
384.44203	45522.0875
388.60257	45856.5875
392.76012	46265.7875
396.91468	46768.0875
401.06626	47328.8875
405.21485	47725.3875
409.36047	47654.8875
413.50311	47212.6875
417.64277	46834.4875
421.77947	46876.7875
425.9132	47027.6875
430.04396	47329.2875
434.17176	47562.2875
438.2966	48032.6875
442.41849	48933.8875
446.53742	50282.3875
450.6534	51760.3875
454.76644	52798.7875
458.87653	53107.6875
462.98368	52734.9875
467.08789	51984.4875
471.18916	51140.2875
475.2875	50386.3875
479.38291	49906.3875
483.4754	49544.8875
487.56496	49105.0875
491.6516	48616.8875
495.73531	48159.6875
499.81612	47902.1875
503.89401	48040.6875
507.96899	48239.1875
512.04106	48194.4875
516.11023	48010.4875
520.1765	47802.3875
524.23987	47762.6875
528.30034	47603.7875
532.35792	47385.0875
536.41261	46932.4875
540.46441	46558.1875
544.51333	46532.7875
548.55936	46907.6875
552.60252	47688.0875
556.64279	48812.9875
560.6802	49609.1875
564.71473	50018.4875
568.7464	50567.5875
572.7752	51718.4875
576.80114	52826.2875
580.82422	53939.9875
584.84444	55396.0875
588.86181	57343.0875
592.87633	59221.9875
596.888	59258.7875
600.89682	57304.4875
604.9028	56834.0875
608.90594	59659.4875
612.90624	62943.4875
616.90371	59797.5875
620.89834	52398.8875
624.89015	49157.6875
628.87913	48683.3875
632.86528	48823.0875
636.84862	48683.9875
640.82913	48086.6875
644.80683	47223.0875
648.78172	46596.9875
652.75379	46618.7875
656.72306	47183.5875
660.68952	47891.3875
664.65319	47690.7875
668.61405	47055.2875
672.57211	46927.3875
676.52738	47178.7875
680.47986	47202.9875
684.42955	46911.1875
688.37646	46814.6875
692.32058	47127.1875
696.26192	47684.1875
700.20048	48346.2875
704.13626	48643.5875
708.06928	48665.8875
711.99952	48427.5875
715.927	48393.1875
719.85171	48569.9875
723.77365	48550.4875
727.69284	48037.6875
731.60928	47536.0875
735.52295	47361.4875
739.43388	47455.5875
743.34206	47643.2875
747.24749	47880.0875
751.15017	48235.0875
755.05012	48895.8875
758.94733	49964.3875
762.8418	51796.3875
766.73354	54704.7875
770.62254	57414.0875
774.50882	57842.1875
778.39237	55836.6875
782.27321	52851.6875
786.15132	50342.5875
790.02671	48750.7875
793.89938	48036.7875
797.76935	47708.0875
801.6366	47615.8875
805.50115	47478.4875
809.36299	47304.5875
813.22213	47097.5875
817.07857	46965.2875
820.93231	46871.4875
824.78336	46787.2875
828.63172	46716.5875
832.47738	46697.6875
836.32036	46755.0875
840.16066	46866.1875
843.99827	46937.8875
847.8332	46969.0875
851.66546	46995.9875
855.49504	46989.7875
859.32195	47013.5875
863.1462	46914.7875
866.96777	46940.9875
870.78668	46872.6875
874.60293	46869.0875
878.41652	46957.0875
882.22745	47018.2875
886.03573	47128.3875
889.84136	47099.7875
893.64433	46905.4875
897.44466	46757.2875
901.24235	46652.1875
905.0374	46612.8875
908.8298	46482.0875
912.61957	46546.8875
916.40671	46883.3875
920.19121	47396.0875
923.97308	47888.4875
927.75233	47858.0875
931.52895	47516.0875
935.30295	47014.6875
939.07433	46481.5875
942.84309	46077.2875
946.60924	45915.4875
950.37278	45879.3875
954.13371	45959.1875
957.89203	45844.6875
961.64774	45816.1875
965.40086	45749.9875
969.15137	45738.0875
972.89929	45576.9875
976.64461	45534.6875
980.38733	45557.1875
984.12747	45710.6875
987.86502	46020.8875
991.59999	46442.2875
995.33237	47017.4875
999.06217	47887.4875
1002.78939	48990.3875
1006.51404	49885.8875
1010.23611	50601.7875
1013.95561	51112.5875
1017.67255	51234.6875
1021.38692	50763.2875
1025.09872	50072.9875
1028.80796	49828.4875
1032.51465	50206.5875
1036.21877	50799.4875
1039.92035	50950.4875
1043.61937	50731.9875
1047.31584	50161.1875
1051.00976	49613.4875
1054.70114	49267.2875
1058.38998	49353.8875
1062.07627	49554.8875
1065.76003	49949.5875
1069.44126	50451.8875
1073.11995	51138.6875
1076.79611	51646.0875
1080.46974	52066.6875
1084.14085	52488.7875
1087.80943	52934.8875
1091.47549	53240.2875
1095.13903	53216.7875
1098.80005	52569.3875
1102.45857	51855.9875
1106.11456	51343.6875
1109.76805	51065.1875
1113.41903	51316.5875
1117.06751	51523.2875
1120.71348	51844.1875
1124.35696	52163.5875
1127.99793	52529.3875
1131.63641	52625.5875
1135.2724	52471.0875
1138.90589	52302.0875
1142.5369	52353.9875
1146.16542	52581.6875
1149.79145	52853.9875
1153.415	53274.8875
1157.03607	53860.8875
1160.65467	54918.6875
1164.27079	56769.0875
1167.88443	59201.1875
1171.49561	61927.2875
1175.10432	65435.4875
1178.71056	69783.0875
1182.31434	74024.5875
1185.91565	75896.7875
1189.51451	75108.3875
1193.11091	73200.8875
1196.70485	70770.9875
1200.29634	68681.6875
1203.88538	67110.2875
1207.47197	66303.5875
1211.05612	65456.0875
1214.63782	64361.9875
1218.21708	63363.7875
1221.79391	62553.3875
1225.36829	62098.5875
1228.94024	61527.3875
1232.50976	60448.6875
1236.07685	59321.7875
1239.6415	58691.1875
1243.20374	58590.7875
1246.76355	59042.3875
1250.32093	59910.1875
1253.8759	60934.3875
1257.42845	62224.5875
1260.97859	63706.7875
1264.52631	65204.2875
1268.07163	66832.8875
1271.61453	68485.5875
1275.15503	70140.0875
1278.69312	71790.6875
1282.22882	73332.6875
1285.76211	75125.0875
1289.29301	77458.9875
1292.82151	80316.5875
1296.34761	83999.7875
1299.87133	88437.3875
1303.39266	93370.5875
1306.9116	98303.3875
1310.42815	102435.4875
1313.94233	104610.8875
1317.45412	104086.4875
1320.96354	101981.4875
1324.47058	99828.5875
1327.97525	97809.0875
1331.47754	96060.1875
1334.97747	94892.0875
1338.47502	93937.5875
1341.97022	93109.1875
1345.46305	92190.5875
1348.95352	91533.0875
1352.44163	91596.4875
1355.92738	93650.0875
1359.41078	97275.8875
1362.89183	100345.1875
1366.37053	98767.1875
1369.84688	91634.0875
1373.32088	82839.3875
1376.79254	77001.2875
1380.26186	74883.0875
1383.72883	74906.4875
1387.19347	75166.4875
1390.65578	74720.9875
1394.11575	74393.3875
1397.57339	74902.4875
1401.0287	75829.6875
1404.48168	76563.5875
1407.93234	76537.3875
1411.38068	75568.5875
1414.82669	73763.0875
1418.27039	71491.5875
1421.71177	69075.3875
1425.15083	67134.2875
1428.58758	66343.6875
1432.02203	66949.3875
1435.45416	68449.1875
1438.88399	70238.0875
1442.31151	71535.2875
1445.73673	72189.1875
1449.15965	72481.9875
1452.58027	72475.3875
1455.9986	72223.7875
1459.41463	72365.2875
1462.82837	73189.5875
1466.23982	74379.8875
1469.64898	75620.6875
1473.05586	76547.3875
1476.46045	76849.0875
1479.86276	76538.7875
1483.26279	75811.5875
1486.66054	75399.1875
1490.05602	75583.0875
1493.44922	76325.2875
1496.84016	76836.8875
1500.22882	77917.9875
1503.61521	79739.3875
1506.99934	82055.6875
1510.38121	83701.0875
1513.76081	83695.5875
1517.13816	81753.7875
1520.51324	79157.6875
1523.88607	77363.0875
1527.25665	76837.0875
1530.62498	77104.5875
1533.99105	77280.2875
1537.35488	76884.7875
1540.71647	75691.6875
1544.07581	74046.9875
1547.4329	72463.1875
1550.78776	70844.4875
1554.14038	69763.5875
1557.49077	69084.5875
1560.83892	68725.0875
1564.18484	68543.5875
1567.52853	68807.0875
1570.86999	69506.4875
1574.20922	70470.7875
1577.54624	71214.9875
1580.88103	71189.3875
1584.2136	71644.4875
1587.54395	73603.2875
1590.87208	77140.5875
1594.19801	81758.3875
1597.52172	86212.4875
1600.84321	87556.1875
1604.16251	84216.0875
1607.47959	78372.6875
1610.79447	72072.3875
1614.10715	66540.1875
1617.41763	62282.7875
1620.7259	59423.9875
1624.03199	58162.6875
1627.33587	58150.0875
1630.63757	59625.4875
1633.93707	62806.1875
1637.23439	68181.8875
1640.52951	76265.1875
1643.82246	85367.8875
1647.11321	92330.0875
1650.40179	92840.3875
1653.68819	86147.4875
1656.97241	75582.3875
1660.25446	65871.6875
1663.53433	58840.6875
1666.81203	54519.8875
1670.08756	51810.3875
1673.36092	50068.1875
1676.63211	48890.7875
1679.90115	48136.1875
1683.16801	47415.4875
1686.43272	47024.2875
1689.69527	46725.7875
1692.95567	46415.4875
1696.2139	46379.1875
1699.46999	46177.3875
1702.72392	46045.5875
1705.97571	46039.5875
1709.22535	45997.5875
1712.47284	45922.6875
1715.71819	45912.8875
1718.96139	45865.4875
1722.20246	45754.0875
1725.44139	45548.9875
1728.67818	45337.7875
1731.91284	45129.9875
1735.14537	44911.9875
1738.37576	44749.2875
1741.60403	44637.2875
1744.83017	44459.7875
1748.05418	44324.2875
1751.27607	44306.9875
1754.49584	44313.8875
1757.71349	44359.6875
1760.92903	44279.3875
1764.14244	44217.7875
1767.35375	44202.1875
1770.56294	44103.4875
1773.77002	44046.9875
1776.97499	44066.4875
1780.17785	44011.4875
1783.37861	43915.8875
1786.57727	43820.7875
1789.77382	43727.8875
1792.96828	43711.3875
1796.16064	43682.8875
1799.3509	43613.3875
1802.53907	43583.6875
1805.72514	43462.3875
1808.90913	43393.4875
1812.09102	43278.4875
1815.27083	43228.9875
1818.44856	43184.0875
1821.6242	43118.7875
1824.79776	43079.7875
1827.96924	43041.4875
1831.13864	43017.6875
1834.30597	43028.9875
1837.47122	42990.6875
1840.6344	42869.5875
1843.7955	42876.8875
1846.95454	42905.1875
1850.11151	42972.3875
1853.26642	42904.3875
1856.41926	42864.4875
1859.57004	42870.8875
1862.71876	42840.6875
1865.86542	42725.8875
1869.01003	42713.2875
1872.15258	42690.9875
1875.29308	42713.1875
1878.43152	42620.0875
1881.56792	42624.8875
1884.70227	42634.9875
1887.83457	42650.1875
1890.96482	42633.8875
1894.09304	42535.9875
1897.21921	42553.5875
1900.34335	42435.8875
1903.46544	42384.5875
1906.58551	42421.5875
1909.70353	42427.9875
1912.81953	42308.7875
1915.93349	42257.2875
1919.04543	42159.1875
1922.15534	42092.6875
1925.26322	42063.3875
1928.36908	42012.0875
1931.47292	41944.4875
1934.57473	41867.5875
1937.67453	41775.6875
1940.77232	41694.3875
1943.86808	41613.5875
1946.96184	41529.4875
1950.05358	41425.2875
1953.14331	41330.0875
1956.23103	41187.6875
1959.31675	41106.8875
1962.40046	40994.3875
1965.48217	40821.0875
1968.56188	40735.3875
1971.63959	40600.0875
1974.7153	40497.1875
1977.78901	40367.3875
1980.86073	40284.1875
1983.93046	40224.7875
1986.99819	40047.0875
1990.06394	40002.1875
1993.1277	39933.0875
1996.18947	39825.0875
1999.24925	39727.7875
2002.30706	39677.7875
2005.36288	39520.3875
2008.41672	39367.0875
2011.46859	39307.9875
2014.51848	39233.2875
2017.56639	39088.2875
2020.61233	38978.7875
2023.6563	38926.2875
2026.6983	38867.0875
2029.73833	38810.3875
2032.7764	38685.4875
2035.8125	38645.2875
2038.84664	38580.6875
2041.87881	38600.0875
2044.90903	38532.5875
2047.93729	38494.5875
2050.96359	38428.7875
2053.98794	38374.5875
2057.01034	38385.4875
2060.03078	38377.3875
2063.04927	38324.7875
2066.06582	38248.9875
2069.08042	38246.8875
2072.09307	38225.8875
2075.10378	38176.7875
2078.11255	38130.8875
2081.11938	38166.6875
2084.12426	38194.6875
2087.12722	38213.9875
2090.12824	38167.3875
2093.12732	38233.0875
2096.12447	38214.2875
2099.11969	38168.6875
2102.11299	38174.6875
2105.10435	38220.9875
2108.09379	38247.7875
2111.08131	38286.8875
2114.0669	38276.5875
2117.05057	38241.7875
2120.03233	38361.6875
2123.01216	38414.8875
2125.99008	38474.4875
2128.96609	38515.6875
2131.94018	38544.4875
2134.91236	38620.2875
2137.88263	38593.0875
2140.851	38580.4875
2143.81746	38627.1875
2146.78201	38634.3875
2149.74466	38718.4875
2152.7054	38721.5875
2155.66425	38672.1875
2158.6212	38691.4875
2161.57625	38673.2875
2164.52941	38659.2875
2167.48067	38660.0875
2170.43004	38600.5875
2173.37752	38645.9875
2176.32311	38704.7875
2179.26681	38700.8875
2182.20863	38671.9875
2185.14856	38778.0875
2188.08661	38743.6875
2191.02278	38736.3875
2193.95707	38677.0875
2196.88948	38669.2875
2199.82001	38624.9875
2202.74867	38600.1875
2205.67545	38621.1875
2208.60037	38530.8875
2211.52341	38509.8875
2214.44458	38491.2875
2217.36388	38457.3875
2220.28132	38371.4875
2223.1969	38262.5875
2226.11061	38258.3875
2229.02246	38138.6875
2231.93245	38113.4875
2234.84058	37997.8875
2237.74686	37984.2875
2240.65128	37975.5875
2243.55385	37893.9875
2246.45456	37917.5875
2249.35343	37921.8875
2252.25044	37836.3875
2255.14561	37776.0875
2258.03893	37722.9875
2260.93041	37650.7875
2263.82004	37542.4875
2266.70783	37538.1875
2269.59378	37356.5875
2272.4779	37344.4875
2275.36017	37330.3875
2278.24061	37241.9875
2281.11922	37148.4875
2283.996	37070.1875
2286.87094	37134.5875
2289.74405	37093.5875
2292.61534	37053.3875
2295.4848	36968.2875
2298.35243	37049.6875
2301.21824	37015.5875
2304.08223	36998.2875
2306.94439	37013.4875
2309.80474	37027.2875
2312.66327	37089.1875
2315.51999	36999.5875
2318.37489	36946.6875
2321.22797	36942.6875
2324.07925	36916.6875
2326.92871	36834.6875
2329.77637	36819.4875
2332.62222	36723.9875
2335.46626	36750.2875
2338.3085	36719.2875
2341.14893	36718.5875
2343.98756	36729.0875
2346.8244	36689.7875
2349.65943	36718.6875
2352.49267	36678.8875
2355.32411	36707.4875
2358.15376	36693.3875
2360.98161	36685.6875
2363.80768	36615.5875
2366.63195	36599.8875
2369.45444	36478.4875
2372.27514	36508.7875
2375.09405	36452.7875
2377.91118	36414.9875
2380.72652	36360.8875
2383.54009	36238.1875
2386.35187	36257.1875
2389.16188	36118.3875
2391.97011	36091.2875
2394.77657	36026.9875
2397.58125	35946.3875
2400.38416	36003.3875
2403.18529	35917.1875
2405.98466	35875.0875
2408.78226	35792.9875
2411.57809	35776.3875
2414.37216	35744.8875
2417.16446	35783.0875
2419.955	35678.9875
2422.74378	35669.9875
2425.5308	35675.8875
2428.31606	35637.4875
2431.09956	35663.4875
2433.88131	35536.4875
2436.6613	35599.3875
2439.43954	35618.8875
2442.21603	35587.2875
2444.99077	35518.1875
2447.76377	35507.4875
2450.53501	35478.9875
2453.30451	35465.6875
2456.07226	35499.4875
2458.83827	35423.6875
2461.60254	35442.3875
2464.36507	35428.5875
2467.12586	35406.5875
2469.88492	35463.6875
2472.64224	35447.5875
2475.39782	35434.0875
2478.15167	35469.2875
2480.90379	35457.6875
2483.65417	35499.1875
2486.40283	35485.8875
2489.14976	35495.6875
2491.89497	35441.0875
2494.63845	35508.8875
2497.3802	35464.3875
2500.12024	35458.2875
2502.85855	35446.9875
2505.59514	35437.8875
2508.33002	35349.4875
2511.06318	35324.5875
2513.79462	35303.1875
2516.52435	35250.2875
2519.25237	35275.0875
2521.97867	35254.1875
2524.70327	35260.9875
2527.42616	35228.8875
2530.14734	35182.3875
2532.86681	35179.1875
2535.58458	35159.3875
2538.30065	35144.7875
2541.01501	35113.3875
2543.72768	35127.9875
2546.43864	35104.9875
2549.14791	35030.7875
2551.85548	35000.8875
2554.56136	34879.4875
2557.26554	34871.5875
2559.96803	34825.5875
2562.66883	34847.9875
2565.36794	34802.1875
2568.06536	34763.7875
2570.7611	34726.3875
2573.45514	34672.1875
2576.14751	34663.4875
2578.83819	34614.2875
2581.52719	34633.4875
2584.21451	34592.9875
2586.90015	34562.6875
2589.58411	34516.4875
2592.2664	34505.4875
2594.94701	34428.9875
2597.62594	34444.4875
2600.30321	34445.2875
2602.9788	34406.8875
2605.65273	34406.8875
2608.32498	34408.0875
2610.99557	34426.7875
2613.66449	34442.1875
2616.33175	34363.2875
2618.99734	34411.3875
2621.66128	34321.7875
2624.32355	34288.9875
2626.98416	34282.1875
2629.64311	34276.1875
2632.30041	34247.5875
2634.95605	34167.2875
2637.61004	34164.7875
2640.26238	34175.5875
2642.91306	34115.6875
2645.56209	34036.0875
2648.20948	34097.7875
2650.85521	34085.6875
2653.4993	34085.1875
2656.14175	34105.5875
2658.78255	34153.1875
2661.42171	34155.3875
2664.05923	34229.8875
2666.6951	34228.8875
2669.32934	34208.8875
2671.96194	34239.3875
2674.59291	34255.5875
2677.22224	34203.5875
2679.84993	34226.3875
2682.476	34196.3875
2685.10043	34162.6875
2687.72324	34164.5875
2690.34441	34142.6875
2692.96396	34098.0875
2695.58188	34179.3875
2698.19818	34098.3875
2700.81285	34087.8875
2703.4259	34082.1875
2706.03733	34176.2875
2708.64714	34132.5875
2711.25533	34182.4875
2713.86191	34209.4875
2716.46687	34273.9875
2719.07021	34281.8875
2721.67194	34297.5875
2724.27206	34246.1875
2726.87057	34286.4875
2729.46747	34294.9875
2732.06276	34279.2875
2734.65644	34294.4875
2737.24852	34330.9875
2739.83899	34316.5875
2742.42786	34370.8875
2745.01513	34304.2875
2747.60079	34243.3875
2750.18486	34243.6875
2752.76733	34239.0875
2755.3482	34140.4875
2757.92747	34161.8875
2760.50515	34131.5875
2763.08123	34148.5875
2765.65573	34136.2875
2768.22863	34143.5875
2770.79994	34058.6875
2773.36967	34119.1875
2775.9378	34124.2875
2778.50435	34107.7875
2781.06932	34055.3875
2783.6327	34054.2875
2786.1945	34041.9875
2788.75471	33980.8875
2791.31335	33946.6875
2793.87041	33872.3875
2796.42589	33826.6875
2798.97979	33773.1875
2801.53212	33711.3875
2804.08288	33688.6875
2806.63206	33596.7875
2809.17967	33528.5875
2811.72571	33414.3875
2814.27018	33335.1875
2816.81308	33252.4875
2819.35442	33210.5875
2821.89419	33189.4875
2824.43239	33164.9875
2826.96904	33179.1875
2829.50412	33205.8875
2832.03763	33069.4875
2834.56959	33070.6875
2837.1	33000.2875
2839.62884	32959.6875
2842.15613	32908.9875
2844.68186	32920.1875
2847.20604	32889.5875
2849.72867	32915.8875
2852.24974	32840.6875
2854.76927	32770.5875
2857.28724	32766.0875
2859.80367	32839.1875
2862.31855	32749.4875
2864.83189	32727.7875
2867.34368	32614.4875
2869.85393	32728.0875
2872.36264	32650.8875
2874.8698	32561.5875
2877.37543	32579.2875
2879.87952	32547.5875
2882.38207	32547.4875
2884.88308	32542.9875
2887.38256	32591.7875
2889.88051	32522.0875
2892.37692	32595.9875
2894.8718	32607.7875
2897.36515	32663.7875
2899.85698	32649.6875
2902.34727	32701.1875
2904.83604	32678.3875
2907.32328	32762.8875
2909.809	32758.0875
2912.29319	32775.0875
2914.77587	32781.2875
2917.25702	32811.0875
2919.73665	32767.5875
2922.21476	32820.9875
2924.69136	32704.5875
2927.16644	32701.3875
2929.64	32679.9875
2932.11205	32643.6875
2934.58258	32533.3875
2937.05161	32603.3875
2939.51912	32636.4875
2941.98513	32628.8875
2944.44962	32561.9875
2946.91261	32484.3875
2949.37409	32547.9875
2951.83407	32544.9875
2954.29254	32555.7875
2956.74951	32524.5875
2959.20498	32537.1875
2961.65895	32494.8875
2964.11142	32528.3875
2966.56239	32484.2875
2969.01186	32422.8875
2971.45984	32335.2875
2973.90632	32341.5875
2976.35131	32251.6875
2978.7948	32277.8875
2981.23681	32157.0875
2983.67732	32155.8875
2986.11635	32075.7875
2988.55388	32025.5875
2990.98993	31965.6875
2993.4245	31928.0875
2995.85758	31914.7875
2998.28917	31808.4875
3000.71928	31738.9875
3003.14791	31636.6875
3005.57506	31674.7875
3008.00073	31615.0875
3010.42493	31529.3875
3012.84764	31465.8875
3015.26888	31451.7875
3017.68865	31356.4875
3020.10694	31368.4875
3022.52376	31315.6875
3024.9391	31301.2875
3027.35298	31310.1875
3029.76539	31222.6875
3032.17632	31229.0875
3034.5858	31172.2875
3036.9938	31138.1875
3039.40034	31083.4875
3041.80542	31070.7875
3044.20903	31033.6875
3046.61118	31013.1875
3049.01187	30947.8875
3051.4111	30870.5875
3053.80888	30806.6875
3056.20519	30771.7875
3058.60005	30746.4875
3060.99345	30679.8875
3063.3854	30585.6875
3065.7759	30482.2875
3068.16494	30433.2875
3070.55254	30332.8875
3072.93868	30277.4875
3075.32338	30112.8875
3077.70662	30096.2875
3080.08842	30043.8875
3082.46878	29971.0875
3084.84769	29931.1875
3087.22515	29937.4875
3089.60118	29943.9875
3091.97576	29897.0875
3094.3489	29834.6875
3096.72061	29888.2875
3099.09087	29897.8875
3101.4597	29836.9875
3103.82709	29857.4875
3106.19305	29860.6875
3108.55757	29824.2875
3110.92066	29783.0875
3113.28232	29767.4875
3115.64255	29659.4875
3118.00134	29559.4875
3120.35871	29508.7875
3122.71466	29425.7875
3125.06917	29397.6875
3127.42226	29350.2875
3129.77393	29349.2875
3132.12417	29272.2875
3134.47299	29283.3875
3136.82039	29253.0875
3139.16636	29242.4875
3141.51092	29238.6875
3143.85406	29211.0875
3146.19579	29179.3875
3148.53609	29193.0875
3150.87499	29259.7875
3153.21246	29220.3875
3155.54853	29284.8875
3157.88318	29239.0875
3160.21642	29265.5875
3162.54826	29256.6875
3164.87868	29167.4875
3167.2077	29127.0875
3169.5353	29127.3875
3171.86151	29116.9875
3174.18631	29160.8875
3176.5097	29122.5875
3178.83169	29050.4875
3181.15228	29013.5875
3183.47147	28971.6875
3185.78926	28928.2875
3188.10565	28909.9875
3190.42065	28869.9875
3192.73424	28864.8875
3195.04645	28798.5875
3197.35725	28804.8875
3199.66667	28734.5875
3201.97469	28767.8875
3204.28132	28692.2875
3206.58656	28700.9875
3208.8904	28677.6875
3211.19287	28744.0875
3213.49394	28698.1875
3215.79363	28724.1875
3218.09193	28756.7875
3220.38884	28765.5875
3222.68438	28806.3875
3224.97853	28714.9875
3227.2713	28660.8875
3229.56269	28637.9875
3231.8527	28646.6875
3234.14133	28635.7875
3236.42858	28534.5875
3238.71446	28501.4875
3240.99896	28470.8875
3243.28209	28498.3875
3245.56384	28424.8875
3247.84423	28401.6875
3250.12324	28330.7875
3252.40088	28348.3875
3254.67715	28340.2875
3256.95205	28305.4875
3259.22558	28259.1875
3261.49775	28186.5875
3263.76855	28169.8875
3266.03799	28131.1875
3268.30606	28095.1875
3270.57277	28011.9875
3272.83812	27968.3875
3275.10211	27936.6875
3277.36474	27908.0875
3279.62601	27934.6875
3281.88593	27860.5875
3284.14448	27882.1875
3286.40168	27848.5875
3288.65753	27827.9875
3290.91202	27844.7875
3293.16516	27740.7875
3295.41695	27692.4875
3297.66738	27547.8875
3299.91647	27440.9875
3302.16421	27299.3875
3304.4106	27103.7875
3306.65564	26935.0875
3308.89933	26747.4875
3311.14169	26573.8875
3313.38269	26425.1875
3315.62236	26273.9875
3317.86068	26066.0875
3320.09766	25845.2875
3322.3333	25713.6875
3324.5676	25591.9875
3326.80056	25181.9875
3329.03219	25033.7875
3331.26248	6.4875
3333.49143	0.6875
3335.71905	-1.0125
