Data from AgNPs_FTO_APTES_UA_20uM_CRN_1uM_R6G_10uM_NaF_0.1M_Addition_RamanShift__17__12-21-52-037.txt Node

Date: Thu Feb 17 12:21:52 GMT 2022
User: TCL
Spectrometer: QEP01345
Trigger mode: 4
Integration Time (sec): 7.000000E0
Scans to average: 10
Electric dark correction enabled: true
Nonlinearity correction enabled: false
Boxcar width: 0
XAxis mode: Raman Shifts
Number of Pixels in Spectrum: 1044
>>>>>Begin Spectral Data<<<<<
46.04893	0.775
50.45542	-0.925
54.85868	-2.825
59.25871	-0.725
63.6555	114.775
68.04907	114.875
72.43941	121.075
76.82654	123.075
81.21044	128.375
85.59113	135.675
89.96862	136.875
94.34289	139.175
98.71396	143.175
103.08183	147.375
107.4465	156.275
111.80798	153.575
116.16626	162.775
120.52136	173.275
124.87327	178.375
129.222	188.775
133.56755	202.375
137.90993	220.775
142.24913	246.675
146.58517	274.375
150.91804	331.375
155.24774	386.875
159.57429	496.675
163.89768	641.775
168.21792	857.375
172.53501	1189.175
176.84895	1673.775
181.15975	2351.875
185.46741	3319.775
189.77193	4590.875
194.07331	6171.375
198.37157	7934.375
202.6667	9848.975
206.9587	11689.775
211.24758	13547.675
215.53334	15359.075
219.81599	17291.175
224.09553	19499.075
228.37195	21909.675
232.64527	24520.875
236.91549	27292.075
241.18261	30120.575
245.44663	32739.975
249.70755	35105.675
253.96539	37166.175
258.22014	38922.875
262.4718	40382.075
266.72039	41414.875
270.96589	42055.175
275.20832	42113.975
279.44768	41861.575
283.68397	41461.975
287.91719	41110.875
292.14735	40944.375
296.37445	40831.475
300.59849	40997.875
304.81948	41094.775
309.03742	41144.875
313.25231	40851.675
317.46415	40222.575
321.67296	39379.775
325.87872	38669.575
330.08145	38352.075
334.28114	38455.175
338.47781	38743.375
342.67145	39250.075
346.86207	39879.175
351.04966	40666.275
355.23424	41537.975
359.4158	42186.375
363.59435	42651.875
367.76989	43120.175
371.94243	43433.775
376.11196	43697.475
380.27849	43881.275
384.44203	44196.675
388.60257	44414.075
392.76012	44747.775
396.91468	45250.375
401.06626	45870.275
405.21485	46318.575
409.36047	46228.275
413.50311	45773.575
417.64277	45412.975
421.77947	45384.175
425.9132	45568.775
430.04396	45861.375
434.17176	46141.575
438.2966	46579.475
442.41849	47346.475
446.53742	48555.275
450.6534	49871.475
454.76644	50979.275
458.87653	51362.575
462.98368	51048.675
467.08789	50352.175
471.18916	49627.975
475.2875	48977.075
479.38291	48586.775
483.4754	48321.375
487.56496	47877.575
491.6516	47360.675
495.73531	46906.075
499.81612	46658.275
503.89401	46877.975
507.96899	47053.675
512.04106	46955.675
516.11023	46707.475
520.1765	46448.075
524.23987	46136.375
528.30034	45982.975
532.35792	45665.875
536.41261	45251.375
540.46441	44875.275
544.51333	44855.775
548.55936	45218.375
552.60252	46084.075
556.64279	47091.975
560.6802	47859.075
564.71473	48377.475
568.7464	49145.475
572.7752	50282.075
576.80114	51284.675
580.82422	52129.375
584.84444	53004.375
588.86181	53981.675
592.87633	54853.775
596.888	54731.075
600.89682	53891.575
604.9028	54722.275
608.90594	58511.075
612.90624	62298.775
616.90371	58972.875
620.89834	50969.775
624.89015	47471.475
628.87913	46957.475
632.86528	47056.075
636.84862	46911.275
640.82913	46300.475
644.80683	45402.575
648.78172	44756.875
652.75379	44602.075
656.72306	45234.175
660.68952	45966.575
664.65319	45797.175
668.61405	45142.375
672.57211	45025.275
676.52738	45114.575
680.47986	45133.175
684.42955	44906.275
688.37646	44817.375
692.32058	45072.275
696.26192	45630.675
700.20048	46190.375
704.13626	46500.175
708.06928	46426.575
711.99952	46165.875
715.927	46028.575
719.85171	46271.975
723.77365	46259.175
727.69284	45788.075
731.60928	45315.575
735.52295	45243.075
739.43388	45339.275
743.34206	45431.875
747.24749	45605.475
751.15017	46003.575
755.05012	46603.575
758.94733	47759.375
762.8418	49777.175
766.73354	52892.675
770.62254	55811.975
774.50882	56256.575
778.39237	54060.975
782.27321	50854.175
786.15132	48179.275
790.02671	46526.875
793.89938	45749.475
797.76935	45446.175
801.6366	45388.575
805.50115	45269.475
809.36299	45099.075
813.22213	44803.175
817.07857	44707.575
820.93231	44536.875
824.78336	44363.075
828.63172	44278.175
832.47738	44290.775
836.32036	44325.575
840.16066	44413.975
843.99827	44584.675
847.8332	44583.875
851.66546	44479.475
855.49504	44464.375
859.32195	44502.775
863.1462	44439.975
866.96777	44430.575
870.78668	44339.375
874.60293	44337.675
878.41652	44372.975
882.22745	44560.975
886.03573	44624.675
889.84136	44656.175
893.64433	44471.575
897.44466	44276.675
901.24235	44111.675
905.0374	43980.675
908.8298	43884.175
912.61957	43965.675
916.40671	44255.475
920.19121	44749.775
923.97308	45215.375
927.75233	45252.775
931.52895	44943.375
935.30295	44533.075
939.07433	43937.575
942.84309	43473.275
946.60924	43398.375
950.37278	43391.675
954.13371	43358.175
957.89203	43226.075
961.64774	43115.375
965.40086	43086.975
969.15137	42949.375
972.89929	42820.175
976.64461	42780.975
980.38733	42811.175
984.12747	42929.775
987.86502	43238.275
991.59999	43886.975
995.33237	44583.875
999.06217	45531.475
1002.78939	46722.875
1006.51404	47697.675
1010.23611	48343.475
1013.95561	48741.275
1017.67255	48677.775
1021.38692	48252.175
1025.09872	47517.175
1028.80796	47340.375
1032.51465	47883.775
1036.21877	48476.875
1039.92035	48595.175
1043.61937	48279.075
1047.31584	47671.275
1051.00976	46930.175
1054.70114	46654.275
1058.38998	46689.875
1062.07627	46987.475
1065.76003	47346.575
1069.44126	47770.875
1073.11995	48385.075
1076.79611	48977.775
1080.46974	49378.375
1084.14085	49854.375
1087.80943	50440.275
1091.47549	50749.175
1095.13903	50675.775
1098.80005	50139.275
1102.45857	49346.275
1106.11456	48732.575
1109.76805	48592.275
1113.41903	48716.475
1117.06751	49060.375
1120.71348	49382.775
1124.35696	49778.875
1127.99793	50153.275
1131.63641	50273.275
1135.2724	49968.075
1138.90589	49747.475
1142.5369	49624.875
1146.16542	49627.975
1149.79145	49895.275
1153.415	50198.575
1157.03607	50774.875
1160.65467	51945.975
1164.27079	53728.875
1167.88443	56164.075
1171.49561	59261.875
1175.10432	63122.575
1178.71056	67837.175
1182.31434	72215.875
1185.91565	74318.375
1189.51451	73945.075
1193.11091	71959.975
1196.70485	69354.775
1200.29634	66761.075
1203.88538	64910.775
1207.47197	63678.375
1211.05612	62556.775
1214.63782	61561.475
1218.21708	60877.675
1221.79391	60491.875
1225.36829	60200.075
1228.94024	59498.875
1232.50976	58273.575
1236.07685	57227.475
1239.6415	56622.575
1243.20374	56536.775
1246.76355	56950.375
1250.32093	57608.475
1253.8759	58806.775
1257.42845	60160.375
1260.97859	61653.275
1264.52631	63181.775
1268.07163	64896.475
1271.61453	66721.575
1275.15503	68332.175
1278.69312	69986.775
1282.22882	71440.075
1285.76211	72951.475
1289.29301	74676.775
1292.82151	77000.075
1296.34761	80056.275
1299.87133	84136.975
1303.39266	88863.875
1306.9116	93890.175
1310.42815	98890.075
1313.94233	102170.775
1317.45412	102573.975
1320.96354	101158.775
1324.47058	99253.875
1327.97525	97631.175
1331.47754	96271.375
1334.97747	95572.075
1338.47502	95334.475
1341.97022	95036.975
1345.46305	94032.775
1348.95352	92659.675
1352.44163	91718.775
1355.92738	92413.875
1359.41078	95357.575
1362.89183	98019.075
1366.37053	96225.875
1369.84688	89133.975
1373.32088	80755.975
1376.79254	75068.375
1380.26186	72743.575
1383.72883	72403.375
1387.19347	72432.675
1390.65578	71961.775
1394.11575	71954.375
1397.57339	72840.675
1401.0287	74283.075
1404.48168	75745.975
1407.93234	76397.175
1411.38068	75616.075
1414.82669	73917.175
1418.27039	71322.875
1421.71177	68660.675
1425.15083	66356.775
1428.58758	65309.275
1432.02203	65697.075
1435.45416	67090.275
1438.88399	68858.175
1442.31151	70383.175
1445.73673	71454.275
1449.15965	72176.675
1452.58027	72510.675
1455.9986	72616.675
1459.41463	73089.775
1462.82837	74179.575
1466.23982	75585.775
1469.64898	76844.075
1473.05586	77575.975
1476.46045	77506.775
1479.86276	76924.875
1483.26279	75980.675
1486.66054	75348.475
1490.05602	75207.875
1493.44922	75419.175
1496.84016	75650.875
1500.22882	76542.575
1503.61521	78307.075
1506.99934	80453.575
1510.38121	82286.375
1513.76081	82354.775
1517.13816	80313.475
1520.51324	77370.575
1523.88607	75027.075
1527.25665	73977.775
1530.62498	73839.075
1533.99105	73920.975
1537.35488	73825.375
1540.71647	73228.675
1544.07581	72319.975
1547.4329	71107.675
1550.78776	69825.575
1554.14038	68821.875
1557.49077	68121.575
1560.83892	67775.075
1564.18484	67660.375
1567.52853	67683.275
1570.86999	67988.975
1574.20922	68696.075
1577.54624	69244.675
1580.88103	69156.875
1584.2136	69418.275
1587.54395	71212.975
1590.87208	74674.675
1594.19801	79530.275
1597.52172	84601.775
1600.84321	86414.075
1604.16251	83335.175
1607.47959	77649.275
1610.79447	71366.975
1614.10715	65655.175
1617.41763	60815.975
1620.7259	57483.175
1624.03199	55758.075
1627.33587	55596.075
1630.63757	57054.175
1633.93707	60278.675
1637.23439	65745.575
1640.52951	73532.975
1643.82246	82159.375
1647.11321	88405.675
1650.40179	88596.975
1653.68819	82167.375
1656.97241	71977.675
1660.25446	62368.175
1663.53433	55466.175
1666.81203	51094.575
1670.08756	48357.075
1673.36092	46612.475
1676.63211	45485.475
1679.90115	44611.075
1683.16801	43937.175
1686.43272	43524.875
1689.69527	43199.775
1692.95567	42843.175
1696.2139	42737.575
1699.46999	42619.775
1702.72392	42541.075
1705.97571	42423.775
1709.22535	42302.975
1712.47284	42256.175
1715.71819	42278.275
1718.96139	42206.275
1722.20246	42044.875
1725.44139	41882.875
1728.67818	41719.275
1731.91284	41454.275
1735.14537	41231.475
1738.37576	41058.075
1741.60403	40982.575
1744.83017	40779.875
1748.05418	40667.075
1751.27607	40589.475
1754.49584	40513.375
1757.71349	40601.175
1760.92903	40510.575
1764.14244	40464.775
1767.35375	40440.475
1770.56294	40456.675
1773.77002	40401.675
1776.97499	40415.875
1780.17785	40278.675
1783.37861	40226.475
1786.57727	40154.275
1789.77382	40033.075
1792.96828	40034.675
1796.16064	39964.975
1799.3509	39929.575
1802.53907	39836.775
1805.72514	39770.775
1808.90913	39678.075
1812.09102	39596.575
1815.27083	39505.375
1818.44856	39486.675
1821.6242	39459.675
1824.79776	39410.275
1827.96924	39353.075
1831.13864	39364.275
1834.30597	39361.875
1837.47122	39269.075
1840.6344	39242.375
1843.7955	39255.675
1846.95454	39252.275
1850.11151	39325.075
1853.26642	39306.375
1856.41926	39209.175
1859.57004	39282.575
1862.71876	39156.875
1865.86542	39154.575
1869.01003	39121.575
1872.15258	39088.075
1875.29308	39121.575
1878.43152	39025.775
1881.56792	39020.475
1884.70227	39057.075
1887.83457	39046.175
1890.96482	39006.875
1894.09304	38912.875
1897.21921	38879.375
1900.34335	38812.575
1903.46544	38824.575
1906.58551	38815.975
1909.70353	38817.475
1912.81953	38714.775
1915.93349	38709.975
1919.04543	38563.975
1922.15534	38528.075
1925.26322	38472.675
1928.36908	38312.175
1931.47292	38326.375
1934.57473	38185.575
1937.67453	38090.175
1940.77232	38049.475
1943.86808	37882.275
1946.96184	37766.975
1950.05358	37671.875
1953.14331	37580.375
1956.23103	37514.075
1959.31675	37335.075
1962.40046	37231.775
1965.48217	37071.375
1968.56188	37015.275
1971.63959	36952.675
1974.7153	36874.775
1977.78901	36768.275
1980.86073	36641.975
1983.93046	36610.575
1986.99819	36500.375
1990.06394	36378.575
1993.1277	36312.475
1996.18947	36185.975
1999.24925	36088.775
2002.30706	36008.475
2005.36288	35914.975
2008.41672	35770.875
2011.46859	35684.875
2014.51848	35609.575
2017.56639	35481.075
2020.61233	35426.075
2023.6563	35308.375
2026.6983	35285.475
2029.73833	35228.275
2032.7764	35141.775
2035.8125	35080.975
2038.84664	35008.675
2041.87881	35023.575
2044.90903	34898.375
2047.93729	34875.875
2050.96359	34821.075
2053.98794	34779.075
2057.01034	34793.575
2060.03078	34784.975
2063.04927	34787.475
2066.06582	34753.975
2069.08042	34739.175
2072.09307	34683.475
2075.10378	34621.975
2078.11255	34585.675
2081.11938	34623.975
2084.12426	34547.575
2087.12722	34500.675
2090.12824	34529.275
2093.12732	34527.875
2096.12447	34559.975
2099.11969	34506.175
2102.11299	34505.175
2105.10435	34569.475
2108.09379	34584.375
2111.08131	34609.375
2114.0669	34561.775
2117.05057	34564.875
2120.03233	34615.375
2123.01216	34618.975
2125.99008	34713.075
2128.96609	34751.775
2131.94018	34770.275
2134.91236	34840.275
2137.88263	34863.475
2140.851	34851.575
2143.81746	34924.375
2146.78201	34873.575
2149.74466	34892.975
2152.7054	34939.875
2155.66425	34971.075
2158.6212	34930.675
2161.57625	34903.875
2164.52941	34915.575
2167.48067	34886.075
2170.43004	34867.275
2173.37752	34850.475
2176.32311	34904.875
2179.26681	34921.975
2182.20863	34961.475
2185.14856	34964.375
2188.08661	34942.875
2191.02278	34963.175
2193.95707	34886.775
2196.88948	34854.275
2199.82001	34849.975
2202.74867	34823.575
2205.67545	34822.975
2208.60037	34787.075
2211.52341	34719.875
2214.44458	34716.375
2217.36388	34692.175
2220.28132	34622.375
2223.1969	34588.075
2226.11061	34452.675
2229.02246	34384.075
2231.93245	34286.175
2234.84058	34278.075
2237.74686	34252.675
2240.65128	34212.975
2243.55385	34177.575
2246.45456	34092.875
2249.35343	34061.075
2252.25044	34019.375
2255.14561	33970.175
2258.03893	33931.975
2260.93041	33915.475
2263.82004	33768.675
2266.70783	33693.275
2269.59378	33672.075
2272.4779	33530.575
2275.36017	33524.875
2278.24061	33449.875
2281.11922	33431.575
2283.996	33348.275
2286.87094	33340.675
2289.74405	33286.875
2292.61534	33303.875
2295.4848	33250.775
2298.35243	33240.075
2301.21824	33230.475
2304.08223	33217.475
2306.94439	33224.375
2309.80474	33217.575
2312.66327	33261.275
2315.51999	33224.675
2318.37489	33206.875
2321.22797	33149.975
2324.07925	33168.775
2326.92871	33059.375
2329.77637	33001.975
2332.62222	33001.175
2335.46626	32998.575
2338.3085	33000.975
2341.14893	32987.775
2343.98756	32985.675
2346.8244	32988.575
2349.65943	33019.375
2352.49267	32992.675
2355.32411	33008.375
2358.15376	32974.275
2360.98161	32983.775
2363.80768	32897.575
2366.63195	32867.975
2369.45444	32861.375
2372.27514	32818.575
2375.09405	32773.075
2377.91118	32677.275
2380.72652	32573.675
2383.54009	32558.375
2386.35187	32460.575
2389.16188	32336.175
2391.97011	32343.775
2394.77657	32276.475
2397.58125	32302.775
2400.38416	32225.675
2403.18529	32123.275
2405.98466	32146.275
2408.78226	32025.775
2411.57809	32043.075
2414.37216	32006.175
2417.16446	31977.375
2419.955	31902.575
2422.74378	31930.975
2425.5308	31867.675
2428.31606	31882.375
2431.09956	31929.175
2433.88131	31893.575
2436.6613	31871.575
2439.43954	31866.975
2442.21603	31833.275
2444.99077	31786.175
2447.76377	31792.575
2450.53501	31800.875
2453.30451	31799.075
2456.07226	31771.275
2458.83827	31736.675
2461.60254	31727.975
2464.36507	31724.475
2467.12586	31702.775
2469.88492	31742.275
2472.64224	31741.375
2475.39782	31759.975
2478.15167	31753.575
2480.90379	31748.475
2483.65417	31738.475
2486.40283	31793.175
2489.14976	31784.075
2491.89497	31777.875
2494.63845	31807.175
2497.3802	31800.575
2500.12024	31808.975
2502.85855	31776.975
2505.59514	31734.675
2508.33002	31701.275
2511.06318	31678.875
2513.79462	31643.175
2516.52435	31641.575
2519.25237	31570.075
2521.97867	31559.375
2524.70327	31561.075
2527.42616	31481.075
2530.14734	31512.075
2532.86681	31472.675
2535.58458	31484.675
2538.30065	31511.175
2541.01501	31469.375
2543.72768	31492.075
2546.43864	31435.875
2549.14791	31389.275
2551.85548	31323.975
2554.56136	31300.475
2557.26554	31203.275
2559.96803	31209.975
2562.66883	31188.875
2565.36794	31155.675
2568.06536	31141.575
2570.7611	31090.875
2573.45514	31007.375
2576.14751	31032.375
2578.83819	31034.775
2581.52719	31028.075
2584.21451	30977.675
2586.90015	30970.675
2589.58411	30897.375
2592.2664	30926.175
2594.94701	30933.075
2597.62594	30893.175
2600.30321	30892.475
2602.9788	30901.375
2605.65273	30861.675
2608.32498	30899.375
2610.99557	30856.475
2613.66449	30886.075
2616.33175	30849.575
2618.99734	30845.475
2621.66128	30793.975
2624.32355	30739.675
2626.98416	30757.275
2629.64311	30726.675
2632.30041	30735.875
2634.95605	30747.875
2637.61004	30703.775
2640.26238	30704.375
2642.91306	30673.775
2645.56209	30629.275
2648.20948	30615.975
2650.85521	30619.375
2653.4993	30651.375
2656.14175	30657.875
2658.78255	30658.275
2661.42171	30694.175
2664.05923	30752.475
2666.6951	30720.975
2669.32934	30726.075
2671.96194	30735.075
2674.59291	30734.575
2677.22224	30723.275
2679.84993	30754.375
2682.476	30710.275
2685.10043	30646.075
2687.72324	30623.375
2690.34441	30632.575
2692.96396	30618.075
2695.58188	30657.275
2698.19818	30599.775
2700.81285	30626.275
2703.4259	30606.975
2706.03733	30656.175
2708.64714	30629.175
2711.25533	30675.975
2713.86191	30627.175
2716.46687	30708.375
2719.07021	30725.775
2721.67194	30750.275
2724.27206	30694.175
2726.87057	30732.475
2729.46747	30734.075
2732.06276	30749.675
2734.65644	30725.075
2737.24852	30778.975
2739.83899	30741.975
2742.42786	30780.475
2745.01513	30748.175
2747.60079	30714.275
2750.18486	30676.075
2752.76733	30702.475
2755.3482	30650.375
2757.92747	30667.075
2760.50515	30582.275
2763.08123	30562.575
2765.65573	30582.575
2768.22863	30573.475
2770.79994	30501.275
2773.36967	30542.075
2775.9378	30556.775
2778.50435	30536.675
2781.06932	30526.775
2783.6327	30567.675
2786.1945	30518.175
2788.75471	30435.875
2791.31335	30394.075
2793.87041	30338.475
2796.42589	30310.075
2798.97979	30264.575
2801.53212	30168.875
2804.08288	30145.075
2806.63206	30098.875
2809.17967	30042.075
2811.72571	29963.475
2814.27018	29860.775
2816.81308	29784.675
2819.35442	29740.575
2821.89419	29722.575
2824.43239	29704.475
2826.96904	29726.175
2829.50412	29696.775
2832.03763	29599.875
2834.56959	29585.375
2837.1	29499.675
2839.62884	29527.075
2842.15613	29449.375
2844.68186	29504.075
2847.20604	29460.475
2849.72867	29447.775
2852.24974	29393.475
2854.76927	29378.675
2857.28724	29322.975
2859.80367	29349.475
2862.31855	29298.275
2864.83189	29252.475
2867.34368	29196.875
2869.85393	29230.775
2872.36264	29180.675
2874.8698	29189.975
2877.37543	29127.575
2879.87952	29115.375
2882.38207	29146.875
2884.88308	29136.675
2887.38256	29185.475
2889.88051	29118.675
2892.37692	29161.475
2894.8718	29147.475
2897.36515	29207.875
2899.85698	29230.275
2902.34727	29240.575
2904.83604	29268.975
2907.32328	29302.875
2909.809	29342.575
2912.29319	29331.775
2914.77587	29365.675
2917.25702	29323.975
2919.73665	29317.675
2922.21476	29298.975
2924.69136	29229.475
2927.16644	29282.975
2929.64	29252.075
2932.11205	29170.275
2934.58258	29110.375
2937.05161	29133.275
2939.51912	29132.175
2941.98513	29104.475
2944.44962	29025.475
2946.91261	28940.475
2949.37409	29034.875
2951.83407	28970.975
2954.29254	28968.875
2956.74951	28979.875
2959.20498	28968.975
2961.65895	28961.775
2964.11142	28988.675
2966.56239	28881.975
2969.01186	28884.975
2971.45984	28739.075
2973.90632	28731.375
2976.35131	28707.375
2978.7948	28653.575
2981.23681	28600.875
2983.67732	28549.075
2986.11635	28464.175
2988.55388	28418.075
2990.98993	28422.575
2993.4245	28310.675
2995.85758	28243.275
2998.28917	28148.175
3000.71928	28082.375
3003.14791	28050.275
3005.57506	28031.475
3008.00073	27946.375
3010.42493	27948.175
3012.84764	27876.675
3015.26888	27830.775
3017.68865	27786.375
3020.10694	27735.775
3022.52376	27663.575
3024.9391	27652.475
3027.35298	27644.175
3029.76539	27642.375
3032.17632	27590.975
3034.5858	27564.875
3036.9938	27527.875
3039.40034	27502.975
3041.80542	27485.675
3044.20903	27482.875
3046.61118	27452.275
3049.01187	27353.775
3051.4111	27329.975
3053.80888	27266.175
3056.20519	27182.475
3058.60005	27156.475
3060.99345	27090.775
3063.3854	27013.875
3065.7759	26943.775
3068.16494	26874.775
3070.55254	26771.075
3072.93868	26720.375
3075.32338	26639.275
3077.70662	26584.175
3080.08842	26504.075
3082.46878	26439.675
3084.84769	26332.575
3087.22515	26367.475
3089.60118	26358.175
3091.97576	26340.475
3094.3489	26294.275
3096.72061	26344.475
3099.09087	26352.875
3101.4597	26313.075
3103.82709	26311.875
3106.19305	26247.175
3108.55757	26275.875
3110.92066	26183.675
3113.28232	26176.975
3115.64255	26121.775
3118.00134	26021.275
3120.35871	25923.075
3122.71466	25808.375
3125.06917	25832.075
3127.42226	25770.675
3129.77393	25771.175
3132.12417	25717.375
3134.47299	25720.775
3136.82039	25647.275
3139.16636	25655.375
3141.51092	25625.275
3143.85406	25628.775
3146.19579	25627.675
3148.53609	25596.075
3150.87499	25623.875
3153.21246	25626.975
3155.54853	25634.075
3157.88318	25623.975
3160.21642	25608.975
3162.54826	25547.275
3164.87868	25510.075
3167.2077	25521.875
3169.5353	25483.475
3171.86151	25460.975
3174.18631	25492.475
3176.5097	25473.575
3178.83169	25476.775
3181.15228	25428.575
3183.47147	25330.275
3185.78926	25293.275
3188.10565	25311.475
3190.42065	25249.075
3192.73424	25263.975
3195.04645	25152.475
3197.35725	25196.975
3199.66667	25174.475
3201.97469	25157.775
3204.28132	25099.275
3206.58656	25120.375
3208.8904	25154.475
3211.19287	25153.975
3213.49394	25108.475
3215.79363	25149.875
3218.09193	25179.075
3220.38884	25176.875
3222.68438	25204.975
3224.97853	25101.775
3227.2713	25085.375
3229.56269	25078.875
3231.8527	25081.175
3234.14133	24972.475
3236.42858	24956.675
3238.71446	24897.675
3240.99896	24873.275
3243.28209	24855.575
3245.56384	24800.375
3247.84423	24783.875
3250.12324	24732.675
3252.40088	24751.675
3254.67715	24728.275
3256.95205	24682.875
3259.22558	24707.575
3261.49775	24645.775
3263.76855	24614.075
3266.03799	24543.575
3268.30606	24460.875
3270.57277	24448.075
3272.83812	24427.375
3275.10211	24360.075
3277.36474	24338.075
3279.62601	24362.475
3281.88593	24334.475
3284.14448	24334.775
3286.40168	24293.075
3288.65753	24295.075
3290.91202	24277.875
3293.16516	24204.875
3295.41695	24191.675
3297.66738	24028.775
3299.91647	23933.175
3302.16421	23759.375
3304.4106	23657.875
3306.65564	23463.175
3308.89933	23330.475
3311.14169	23215.075
3313.38269	22975.475
3315.62236	22846.275
3317.86068	22621.775
3320.09766	22463.675
3322.3333	22290.775
3324.5676	22201.375
3326.80056	21874.575
3329.03219	21693.875
3331.26248	4.475
3333.49143	0.375
3335.71905	-0.525
