Data from AgNPs_UA_50uM_CRN_0uM_R6G_10uM_Q_RamanShift__32__12-48-31-794.txt Node

Date: Tue Jul 26 12:48:31 BST 2022
User: TCL
Spectrometer: QEP01345
Trigger mode: 4
Integration Time (sec): 7.000000E0
Scans to average: 10
Electric dark correction enabled: true
Nonlinearity correction enabled: false
Boxcar width: 0
XAxis mode: Raman Shifts
Number of Pixels in Spectrum: 1044
>>>>>Begin Spectral Data<<<<<
46.04893	0.0125
50.45542	0.8125
54.85868	0.6125
59.25871	0.0125
63.6555	60.9125
68.04907	67.6125
72.43941	73.2125
76.82654	79.2125
81.21044	81.0125
85.59113	80.4125
89.96862	89.1125
94.34289	89.7125
98.71396	96.2125
103.08183	101.2125
107.4465	94.9125
111.80798	100.0125
116.16626	102.2125
120.52136	106.4125
124.87327	104.5125
129.222	107.1125
133.56755	116.4125
137.90993	119.2125
142.24913	125.5125
146.58517	133.9125
150.91804	148.6125
155.24774	174.4125
159.57429	202.1125
163.89768	249.1125
168.21792	325.7125
172.53501	437.3125
176.84895	585.6125
181.15975	826.8125
185.46741	1141.6125
189.77193	1571.6125
194.07331	2082.3125
198.37157	2687.4125
202.6667	3331.2125
206.9587	3963.2125
211.24758	4635.7125
215.53334	5353.2125
219.81599	6171.7125
224.09553	7089.4125
228.37195	8120.4125
232.64527	9203.0125
236.91549	10258.0125
241.18261	11129.0125
245.44663	11778.7125
249.70755	12282.3125
253.96539	12661.5125
258.22014	12908.8125
262.4718	13145.9125
266.72039	13230.5125
270.96589	13138.5125
275.20832	12884.1125
279.44768	12567.7125
283.68397	12243.0125
287.91719	12109.8125
292.14735	12250.9125
296.37445	12804.8125
300.59849	13656.7125
304.81948	14650.9125
309.03742	15535.3125
313.25231	15680.9125
317.46415	14830.4125
321.67296	13388.4125
325.87872	12164.7125
330.08145	11662.4125
334.28114	11702.5125
338.47781	12009.4125
342.67145	12529.1125
346.86207	13333.0125
351.04966	14497.6125
355.23424	15780.9125
359.4158	16717.4125
363.59435	17038.6125
367.76989	16951.4125
371.94243	16704.3125
376.11196	16396.9125
380.27849	16139.2125
384.44203	15791.5125
388.60257	15443.6125
392.76012	15231.9125
396.91468	15366.7125
401.06626	15823.1125
405.21485	16092.4125
409.36047	15589.2125
413.50311	14441.8125
417.64277	13363.1125
421.77947	12717.6125
425.9132	12428.3125
430.04396	12389.5125
434.17176	12537.7125
438.2966	12820.4125
442.41849	13317.4125
446.53742	13881.1125
450.6534	14328.2125
454.76644	14573.8125
458.87653	14452.9125
462.98368	14179.7125
467.08789	13783.8125
471.18916	13260.1125
475.2875	12729.0125
479.38291	12324.4125
483.4754	12070.7125
487.56496	11870.7125
491.6516	11750.2125
495.73531	11703.4125
499.81612	11770.3125
503.89401	11961.4125
507.96899	12248.2125
512.04106	12587.5125
516.11023	12952.1125
520.1765	13234.7125
524.23987	13252.6125
528.30034	13048.4125
532.35792	12817.7125
536.41261	12511.3125
540.46441	12135.8125
544.51333	11936.2125
548.55936	12002.2125
552.60252	12284.7125
556.64279	12611.1125
560.6802	12820.7125
564.71473	13315.4125
568.7464	14139.8125
572.7752	14330.0125
576.80114	13375.7125
580.82422	12538.6125
584.84444	12233.1125
588.86181	12337.7125
592.87633	12570.5125
596.888	12956.9125
600.89682	13892.6125
604.9028	16887.7125
608.90594	23978.4125
612.90624	31795.2125
616.90371	29111.7125
620.89834	18732.2125
624.89015	14121.6125
628.87913	13421.4125
632.86528	13609.1125
636.84862	13858.8125
640.82913	13360.5125
644.80683	12393.7125
648.78172	11760.6125
652.75379	11863.9125
656.72306	12690.3125
660.68952	13520.5125
664.65319	13137.4125
668.61405	12152.0125
672.57211	11782.3125
676.52738	11735.0125
680.47986	11616.0125
684.42955	11431.6125
688.37646	11358.8125
692.32058	11427.4125
696.26192	11595.3125
700.20048	11837.4125
704.13626	11953.6125
708.06928	11815.7125
711.99952	11670.5125
715.927	11686.3125
719.85171	11803.5125
723.77365	11831.2125
727.69284	11724.8125
731.60928	11629.2125
735.52295	11659.4125
739.43388	11717.7125
743.34206	11829.1125
747.24749	11886.8125
751.15017	11948.8125
755.05012	12278.6125
758.94733	13408.0125
762.8418	15952.5125
766.73354	19625.5125
770.62254	22819.9125
774.50882	24437.2125
778.39237	23412.4125
782.27321	19554.3125
786.15132	15563.8125
790.02671	13364.5125
793.89938	12390.2125
797.76935	12030.6125
801.6366	11836.4125
805.50115	11800.0125
809.36299	11737.4125
813.22213	11634.8125
817.07857	11616.5125
820.93231	11588.9125
824.78336	11683.1125
828.63172	11799.5125
832.47738	11823.0125
836.32036	11737.2125
840.16066	11609.1125
843.99827	11538.0125
847.8332	11452.2125
851.66546	11442.4125
855.49504	11447.4125
859.32195	11424.4125
863.1462	11363.5125
866.96777	11294.7125
870.78668	11319.9125
874.60293	11398.3125
878.41652	11510.7125
882.22745	11666.9125
886.03573	11766.7125
889.84136	11747.3125
893.64433	11658.5125
897.44466	11619.7125
901.24235	11624.2125
905.0374	11493.7125
908.8298	11354.6125
912.61957	11292.5125
916.40671	11297.3125
920.19121	11378.1125
923.97308	11625.0125
927.75233	11926.2125
931.52895	12193.4125
935.30295	11999.6125
939.07433	11444.9125
942.84309	11065.8125
946.60924	10854.2125
950.37278	10794.8125
954.13371	10702.1125
957.89203	10679.9125
961.64774	10628.2125
965.40086	10593.4125
969.15137	10548.6125
972.89929	10544.4125
976.64461	10528.4125
980.38733	10561.7125
984.12747	10591.8125
987.86502	10696.3125
991.59999	10832.3125
995.33237	11086.9125
999.06217	11489.4125
1002.78939	11967.5125
1006.51404	12309.4125
1010.23611	12574.6125
1013.95561	12751.8125
1017.67255	12780.8125
1021.38692	12614.7125
1025.09872	12410.5125
1028.80796	12457.0125
1032.51465	12702.3125
1036.21877	12962.7125
1039.92035	13044.2125
1043.61937	12944.0125
1047.31584	12695.6125
1051.00976	12422.0125
1054.70114	12223.4125
1058.38998	12201.3125
1062.07627	12217.0125
1065.76003	12267.2125
1069.44126	12361.4125
1073.11995	12502.7125
1076.79611	12813.3125
1080.46974	13268.0125
1084.14085	13862.9125
1087.80943	14301.0125
1091.47549	14285.4125
1095.13903	13799.7125
1098.80005	13122.0125
1102.45857	12726.4125
1106.11456	12628.1125
1109.76805	12921.7125
1113.41903	13440.9125
1117.06751	14357.9125
1120.71348	15582.3125
1124.35696	16945.0125
1127.99793	17615.0125
1131.63641	16798.8125
1135.2724	15388.3125
1138.90589	14332.6125
1142.5369	13646.4125
1146.16542	13126.9125
1149.79145	12885.0125
1153.415	12843.5125
1157.03607	12985.4125
1160.65467	13317.4125
1164.27079	13913.6125
1167.88443	14840.6125
1171.49561	16424.7125
1175.10432	18963.4125
1178.71056	22360.3125
1182.31434	24984.8125
1185.91565	25676.8125
1189.51451	24790.9125
1193.11091	22916.4125
1196.70485	20789.9125
1200.29634	19160.7125
1203.88538	17847.8125
1207.47197	16320.4125
1211.05612	15107.1125
1214.63782	14413.8125
1218.21708	14185.9125
1221.79391	14169.8125
1225.36829	14295.1125
1228.94024	14362.7125
1232.50976	14360.5125
1236.07685	14434.3125
1239.6415	14603.9125
1243.20374	14769.3125
1246.76355	14919.2125
1250.32093	15101.6125
1253.8759	15500.1125
1257.42845	16121.4125
1260.97859	16812.5125
1264.52631	17528.4125
1268.07163	18107.9125
1271.61453	18604.6125
1275.15503	18807.9125
1278.69312	18991.9125
1282.22882	19444.2125
1285.76211	20198.5125
1289.29301	21074.3125
1292.82151	21801.3125
1296.34761	22692.7125
1299.87133	24290.0125
1303.39266	27104.5125
1306.9116	31401.7125
1310.42815	35609.5125
1313.94233	36777.2125
1317.45412	34138.2125
1320.96354	30144.8125
1324.47058	26605.9125
1327.97525	24103.3125
1331.47754	23031.7125
1334.97747	23032.8125
1338.47502	23755.2125
1341.97022	24987.6125
1345.46305	26885.5125
1348.95352	29219.0125
1352.44163	32170.3125
1355.92738	36759.9125
1359.41078	43304.3125
1362.89183	47696.4125
1366.37053	43638.1125
1369.84688	35066.6125
1373.32088	28054.3125
1376.79254	23979.8125
1380.26186	21798.8125
1383.72883	20425.7125
1387.19347	19187.6125
1390.65578	18086.7125
1394.11575	17182.9125
1397.57339	16673.1125
1401.0287	16623.0125
1404.48168	16864.7125
1407.93234	17301.8125
1411.38068	17854.3125
1414.82669	18201.1125
1418.27039	18102.2125
1421.71177	17786.8125
1425.15083	17542.2125
1428.58758	17717.9125
1432.02203	18130.0125
1435.45416	18338.3125
1438.88399	18273.8125
1442.31151	18155.5125
1445.73673	18128.0125
1449.15965	18123.0125
1452.58027	17862.2125
1455.9986	17488.5125
1459.41463	17358.1125
1462.82837	17600.8125
1466.23982	18068.7125
1469.64898	18608.8125
1473.05586	18868.9125
1476.46045	19154.3125
1479.86276	19602.9125
1483.26279	20159.6125
1486.66054	20978.0125
1490.05602	22121.0125
1493.44922	23813.7125
1496.84016	26401.6125
1500.22882	30348.4125
1503.61521	35566.4125
1506.99934	41191.9125
1510.38121	44999.0125
1513.76081	44746.1125
1517.13816	39790.2125
1520.51324	32906.4125
1523.88607	27282.9125
1527.25665	23909.8125
1530.62498	22135.1125
1533.99105	21099.2125
1537.35488	20543.1125
1540.71647	20233.7125
1544.07581	20208.3125
1547.4329	20264.4125
1550.78776	20236.1125
1554.14038	20193.9125
1557.49077	20238.0125
1560.83892	20467.6125
1564.18484	21205.6125
1567.52853	22150.5125
1570.86999	22860.4125
1574.20922	23150.9125
1577.54624	22665.2125
1580.88103	21013.3125
1584.2136	19105.4125
1587.54395	18250.3125
1590.87208	18574.0125
1594.19801	20113.4125
1597.52172	22152.7125
1600.84321	23291.7125
1604.16251	22772.6125
1607.47959	21195.9125
1610.79447	19228.2125
1614.10715	17302.8125
1617.41763	15879.2125
1620.7259	15000.1125
1624.03199	14661.5125
1627.33587	14832.3125
1630.63757	15354.2125
1633.93707	16482.8125
1637.23439	18286.7125
1640.52951	20930.5125
1643.82246	24527.0125
1647.11321	28307.5125
1650.40179	30010.5125
1653.68819	27926.2125
1656.97241	23205.4125
1660.25446	18665.4125
1663.53433	15640.5125
1666.81203	13907.9125
1670.08756	12872.7125
1673.36092	12210.7125
1676.63211	11802.1125
1679.90115	11493.4125
1683.16801	11275.5125
1686.43272	11101.0125
1689.69527	11021.2125
1692.95567	10911.9125
1696.2139	10858.3125
1699.46999	10825.7125
1702.72392	10803.7125
1705.97571	10801.4125
1709.22535	10810.0125
1712.47284	10796.1125
1715.71819	10785.7125
1718.96139	10759.7125
1722.20246	10731.8125
1725.44139	10665.5125
1728.67818	10563.9125
1731.91284	10465.6125
1735.14537	10387.4125
1738.37576	10334.3125
1741.60403	10288.8125
1744.83017	10220.6125
1748.05418	10183.6125
1751.27607	10161.2125
1754.49584	10134.1125
1757.71349	10095.1125
1760.92903	10061.0125
1764.14244	10025.2125
1767.35375	10027.8125
1770.56294	9986.7125
1773.77002	9942.9125
1776.97499	9948.9125
1780.17785	9904.9125
1783.37861	9860.4125
1786.57727	9872.5125
1789.77382	9843.6125
1792.96828	9838.1125
1796.16064	9834.0125
1799.3509	9820.4125
1802.53907	9830.1125
1805.72514	9787.3125
1808.90913	9738.0125
1812.09102	9712.5125
1815.27083	9671.1125
1818.44856	9646.4125
1821.6242	9598.5125
1824.79776	9607.2125
1827.96924	9586.5125
1831.13864	9563.9125
1834.30597	9557.0125
1837.47122	9539.4125
1840.6344	9529.6125
1843.7955	9527.8125
1846.95454	9515.8125
1850.11151	9503.3125
1853.26642	9508.2125
1856.41926	9507.9125
1859.57004	9523.5125
1862.71876	9495.8125
1865.86542	9519.0125
1869.01003	9506.5125
1872.15258	9529.0125
1875.29308	9502.3125
1878.43152	9508.4125
1881.56792	9504.7125
1884.70227	9506.4125
1887.83457	9491.1125
1890.96482	9484.5125
1894.09304	9459.7125
1897.21921	9466.2125
1900.34335	9447.0125
1903.46544	9446.0125
1906.58551	9450.0125
1909.70353	9454.3125
1912.81953	9434.5125
1915.93349	9419.0125
1919.04543	9422.1125
1922.15534	9391.0125
1925.26322	9374.4125
1928.36908	9346.7125
1931.47292	9334.0125
1934.57473	9308.6125
1937.67453	9296.9125
1940.77232	9249.7125
1943.86808	9240.2125
1946.96184	9220.1125
1950.05358	9190.1125
1953.14331	9149.6125
1956.23103	9147.7125
1959.31675	9098.5125
1962.40046	9047.6125
1965.48217	9064.9125
1968.56188	9039.0125
1971.63959	9028.0125
1974.7153	9008.3125
1977.78901	8984.3125
1980.86073	8951.1125
1983.93046	8896.4125
1986.99819	8881.8125
1990.06394	8856.1125
1993.1277	8805.6125
1996.18947	8781.4125
1999.24925	8756.5125
2002.30706	8728.1125
2005.36288	8719.1125
2008.41672	8673.6125
2011.46859	8654.3125
2014.51848	8609.9125
2017.56639	8573.5125
2020.61233	8572.6125
2023.6563	8542.6125
2026.6983	8522.4125
2029.73833	8536.2125
2032.7764	8487.4125
2035.8125	8467.7125
2038.84664	8481.4125
2041.87881	8472.4125
2044.90903	8452.5125
2047.93729	8431.3125
2050.96359	8425.3125
2053.98794	8410.2125
2057.01034	8419.5125
2060.03078	8414.4125
2063.04927	8399.5125
2066.06582	8379.5125
2069.08042	8363.0125
2072.09307	8346.7125
2075.10378	8328.8125
2078.11255	8325.9125
2081.11938	8327.4125
2084.12426	8312.3125
2087.12722	8314.2125
2090.12824	8317.4125
2093.12732	8313.1125
2096.12447	8305.3125
2099.11969	8306.1125
2102.11299	8306.2125
2105.10435	8304.7125
2108.09379	8323.7125
2111.08131	8310.1125
2114.0669	8316.3125
2117.05057	8322.8125
2120.03233	8364.9125
2123.01216	8345.2125
2125.99008	8335.6125
2128.96609	8352.7125
2131.94018	8341.9125
2134.91236	8345.6125
2137.88263	8347.6125
2140.851	8344.4125
2143.81746	8349.7125
2146.78201	8330.0125
2149.74466	8330.0125
2152.7054	8336.7125
2155.66425	8320.5125
2158.6212	8304.3125
2161.57625	8292.9125
2164.52941	8296.1125
2167.48067	8278.2125
2170.43004	8279.8125
2173.37752	8271.4125
2176.32311	8297.3125
2179.26681	8303.8125
2182.20863	8287.6125
2185.14856	8275.0125
2188.08661	8267.6125
2191.02278	8269.7125
2193.95707	8276.1125
2196.88948	8281.7125
2199.82001	8286.8125
2202.74867	8267.5125
2205.67545	8281.9125
2208.60037	8279.2125
2211.52341	8272.4125
2214.44458	8257.4125
2217.36388	8229.8125
2220.28132	8224.5125
2223.1969	8189.5125
2226.11061	8168.3125
2229.02246	8168.2125
2231.93245	8149.2125
2234.84058	8135.3125
2237.74686	8095.3125
2240.65128	8091.8125
2243.55385	8083.0125
2246.45456	8078.6125
2249.35343	8066.1125
2252.25044	8116.3125
2255.14561	8117.8125
2258.03893	8112.5125
2260.93041	8107.4125
2263.82004	8081.5125
2266.70783	8062.7125
2269.59378	8031.3125
2272.4779	8063.0125
2275.36017	8006.1125
2278.24061	7981.4125
2281.11922	7955.1125
2283.996	7915.3125
2286.87094	7921.7125
2289.74405	7889.8125
2292.61534	7873.3125
2295.4848	7855.9125
2298.35243	7860.0125
2301.21824	7865.4125
2304.08223	7852.0125
2306.94439	7881.9125
2309.80474	7872.0125
2312.66327	7874.7125
2315.51999	7882.6125
2318.37489	7881.9125
2321.22797	7875.6125
2324.07925	7845.1125
2326.92871	7835.3125
2329.77637	7843.5125
2332.62222	7849.0125
2335.46626	7834.4125
2338.3085	7812.7125
2341.14893	7842.1125
2343.98756	7873.1125
2346.8244	7881.8125
2349.65943	7906.1125
2352.49267	7877.9125
2355.32411	7897.0125
2358.15376	7894.8125
2360.98161	7911.0125
2363.80768	7901.0125
2366.63195	7918.7125
2369.45444	7881.4125
2372.27514	7902.6125
2375.09405	7865.2125
2377.91118	7853.4125
2380.72652	7839.8125
2383.54009	7794.7125
2386.35187	7774.3125
2389.16188	7735.0125
2391.97011	7713.5125
2394.77657	7693.2125
2397.58125	7667.6125
2400.38416	7651.2125
2403.18529	7624.9125
2405.98466	7595.3125
2408.78226	7581.7125
2411.57809	7549.0125
2414.37216	7537.1125
2417.16446	7545.2125
2419.955	7540.2125
2422.74378	7536.0125
2425.5308	7540.4125
2428.31606	7510.9125
2431.09956	7504.5125
2433.88131	7502.6125
2436.6613	7526.8125
2439.43954	7530.6125
2442.21603	7529.8125
2444.99077	7497.4125
2447.76377	7501.6125
2450.53501	7497.3125
2453.30451	7512.6125
2456.07226	7502.4125
2458.83827	7513.3125
2461.60254	7496.8125
2464.36507	7469.8125
2467.12586	7478.1125
2469.88492	7496.6125
2472.64224	7484.6125
2475.39782	7500.3125
2478.15167	7498.3125
2480.90379	7524.0125
2483.65417	7553.6125
2486.40283	7575.0125
2489.14976	7597.0125
2491.89497	7594.3125
2494.63845	7612.2125
2497.3802	7590.9125
2500.12024	7571.0125
2502.85855	7563.4125
2505.59514	7528.3125
2508.33002	7511.0125
2511.06318	7464.3125
2513.79462	7464.2125
2516.52435	7434.8125
2519.25237	7410.2125
2521.97867	7377.5125
2524.70327	7369.8125
2527.42616	7360.3125
2530.14734	7362.5125
2532.86681	7347.2125
2535.58458	7363.2125
2538.30065	7345.8125
2541.01501	7358.5125
2543.72768	7365.5125
2546.43864	7343.1125
2549.14791	7357.9125
2551.85548	7349.6125
2554.56136	7343.0125
2557.26554	7327.7125
2559.96803	7325.0125
2562.66883	7339.3125
2565.36794	7303.8125
2568.06536	7289.6125
2570.7611	7287.4125
2573.45514	7252.7125
2576.14751	7287.1125
2578.83819	7268.6125
2581.52719	7256.0125
2584.21451	7258.3125
2586.90015	7247.2125
2589.58411	7220.9125
2592.2664	7234.0125
2594.94701	7224.9125
2597.62594	7221.5125
2600.30321	7198.6125
2602.9788	7205.7125
2605.65273	7227.8125
2608.32498	7231.4125
2610.99557	7226.8125
2613.66449	7241.2125
2616.33175	7222.6125
2618.99734	7229.0125
2621.66128	7241.6125
2624.32355	7236.1125
2626.98416	7257.0125
2629.64311	7246.1125
2632.30041	7229.8125
2634.95605	7229.2125
2637.61004	7226.0125
2640.26238	7204.0125
2642.91306	7206.8125
2645.56209	7197.2125
2648.20948	7193.2125
2650.85521	7154.8125
2653.4993	7159.4125
2656.14175	7147.2125
2658.78255	7157.1125
2661.42171	7153.2125
2664.05923	7180.7125
2666.6951	7201.4125
2669.32934	7210.6125
2671.96194	7225.8125
2674.59291	7240.9125
2677.22224	7212.2125
2679.84993	7231.8125
2682.476	7213.4125
2685.10043	7221.7125
2687.72324	7216.2125
2690.34441	7206.9125
2692.96396	7202.5125
2695.58188	7206.0125
2698.19818	7190.7125
2700.81285	7182.3125
2703.4259	7185.9125
2706.03733	7182.4125
2708.64714	7193.4125
2711.25533	7165.1125
2713.86191	7182.1125
2716.46687	7179.7125
2719.07021	7194.9125
2721.67194	7212.5125
2724.27206	7208.1125
2726.87057	7207.3125
2729.46747	7199.9125
2732.06276	7203.9125
2734.65644	7178.0125
2737.24852	7189.8125
2739.83899	7169.5125
2742.42786	7188.2125
2745.01513	7173.2125
2747.60079	7160.9125
2750.18486	7132.1125
2752.76733	7124.1125
2755.3482	7132.3125
2757.92747	7122.6125
2760.50515	7100.4125
2763.08123	7102.8125
2765.65573	7107.3125
2768.22863	7110.5125
2770.79994	7083.6125
2773.36967	7101.4125
2775.9378	7085.9125
2778.50435	7100.4125
2781.06932	7114.5125
2783.6327	7099.2125
2786.1945	7102.2125
2788.75471	7117.6125
2791.31335	7096.3125
2793.87041	7073.9125
2796.42589	7086.8125
2798.97979	7077.1125
2801.53212	7083.2125
2804.08288	7047.4125
2806.63206	7056.5125
2809.17967	7036.5125
2811.72571	7040.8125
2814.27018	7049.6125
2816.81308	7058.2125
2819.35442	7048.9125
2821.89419	7069.2125
2824.43239	7075.3125
2826.96904	7057.5125
2829.50412	7080.8125
2832.03763	7046.8125
2834.56959	7051.7125
2837.1	7047.5125
2839.62884	7041.7125
2842.15613	7031.6125
2844.68186	7053.0125
2847.20604	7068.3125
2849.72867	7061.0125
2852.24974	7046.8125
2854.76927	7051.1125
2857.28724	7060.0125
2859.80367	7074.7125
2862.31855	7078.4125
2864.83189	7060.6125
2867.34368	7050.6125
2869.85393	7072.4125
2872.36264	7041.4125
2874.8698	7051.0125
2877.37543	7027.2125
2879.87952	7028.6125
2882.38207	7004.5125
2884.88308	7005.5125
2887.38256	6992.0125
2889.88051	7001.5125
2892.37692	6993.1125
2894.8718	6989.4125
2897.36515	6997.6125
2899.85698	6984.9125
2902.34727	7010.3125
2904.83604	7004.0125
2907.32328	7021.8125
2909.809	7016.5125
2912.29319	7006.1125
2914.77587	6985.1125
2917.25702	6994.3125
2919.73665	6990.6125
2922.21476	6984.8125
2924.69136	6949.3125
2927.16644	6943.7125
2929.64	6941.5125
2932.11205	6925.2125
2934.58258	6896.8125
2937.05161	6911.5125
2939.51912	6912.6125
2941.98513	6884.3125
2944.44962	6899.1125
2946.91261	6853.6125
2949.37409	6857.9125
2951.83407	6851.4125
2954.29254	6845.4125
2956.74951	6857.9125
2959.20498	6838.5125
2961.65895	6827.4125
2964.11142	6819.9125
2966.56239	6786.4125
2969.01186	6783.2125
2971.45984	6759.3125
2973.90632	6757.5125
2976.35131	6741.9125
2978.7948	6718.7125
2981.23681	6708.9125
2983.67732	6696.4125
2986.11635	6667.0125
2988.55388	6677.9125
2990.98993	6636.9125
2993.4245	6631.4125
2995.85758	6611.7125
2998.28917	6599.2125
3000.71928	6606.0125
3003.14791	6580.9125
3005.57506	6565.7125
3008.00073	6546.7125
3010.42493	6544.3125
3012.84764	6535.9125
3015.26888	6525.3125
3017.68865	6509.9125
3020.10694	6487.6125
3022.52376	6472.3125
3024.9391	6435.8125
3027.35298	6445.8125
3029.76539	6437.0125
3032.17632	6406.6125
3034.5858	6393.5125
3036.9938	6387.0125
3039.40034	6374.2125
3041.80542	6384.0125
3044.20903	6370.8125
3046.61118	6367.3125
3049.01187	6347.8125
3051.4111	6346.5125
3053.80888	6311.2125
3056.20519	6294.5125
3058.60005	6265.1125
3060.99345	6262.4125
3063.3854	6243.3125
3065.7759	6224.3125
3068.16494	6217.9125
3070.55254	6192.7125
3072.93868	6182.4125
3075.32338	6141.7125
3077.70662	6129.0125
3080.08842	6139.5125
3082.46878	6098.7125
3084.84769	6095.6125
3087.22515	6091.4125
3089.60118	6090.0125
3091.97576	6109.9125
3094.3489	6083.5125
3096.72061	6082.8125
3099.09087	6082.6125
3101.4597	6058.5125
3103.82709	6076.5125
3106.19305	6062.5125
3108.55757	6039.4125
3110.92066	6037.5125
3113.28232	6040.8125
3115.64255	6017.9125
3118.00134	6025.2125
3120.35871	6023.8125
3122.71466	5975.4125
3125.06917	5991.1125
3127.42226	5973.1125
3129.77393	5983.5125
3132.12417	5984.0125
3134.47299	5988.6125
3136.82039	5984.4125
3139.16636	5986.5125
3141.51092	5961.2125
3143.85406	5976.1125
3146.19579	5983.9125
3148.53609	5976.1125
3150.87499	6009.8125
3153.21246	6007.0125
3155.54853	6008.6125
3157.88318	5991.2125
3160.21642	6020.7125
3162.54826	6003.4125
3164.87868	5998.2125
3167.2077	5999.7125
3169.5353	6007.3125
3171.86151	6009.4125
3174.18631	5999.2125
3176.5097	6000.7125
3178.83169	5985.0125
3181.15228	5977.0125
3183.47147	5965.9125
3185.78926	5958.0125
3188.10565	5968.8125
3190.42065	5963.3125
3192.73424	5978.1125
3195.04645	5966.6125
3197.35725	5971.0125
3199.66667	5977.0125
3201.97469	5991.0125
3204.28132	5973.3125
3206.58656	5979.8125
3208.8904	5999.4125
3211.19287	6004.8125
3213.49394	6006.0125
3215.79363	6003.7125
3218.09193	6005.2125
3220.38884	6008.1125
3222.68438	6010.0125
3224.97853	6004.7125
3227.2713	6024.0125
3229.56269	6017.8125
3231.8527	6005.2125
3234.14133	5985.4125
3236.42858	5982.5125
3238.71446	5993.4125
3240.99896	5974.4125
3243.28209	5955.5125
3245.56384	5958.6125
3247.84423	5946.1125
3250.12324	5941.5125
3252.40088	5933.5125
3254.67715	5912.3125
3256.95205	5900.7125
3259.22558	5908.9125
3261.49775	5901.6125
3263.76855	5908.2125
3266.03799	5910.5125
3268.30606	5905.6125
3270.57277	5896.0125
3272.83812	5867.3125
3275.10211	5861.3125
3277.36474	5850.9125
3279.62601	5847.3125
3281.88593	5843.1125
3284.14448	5843.4125
3286.40168	5843.8125
3288.65753	5839.0125
3290.91202	5829.1125
3293.16516	5828.8125
3295.41695	5813.7125
3297.66738	5777.4125
3299.91647	5757.2125
3302.16421	5716.1125
3304.4106	5667.4125
3306.65564	5665.4125
3308.89933	5612.7125
3311.14169	5561.3125
3313.38269	5512.4125
3315.62236	5471.3125
3317.86068	5437.1125
3320.09766	5391.9125
3322.3333	5330.4125
3324.5676	5341.6125
3326.80056	5256.0125
3329.03219	5235.7125
3331.26248	1.7125
3333.49143	-2.5875
3335.71905	-0.3875
