Data from AgNPs_UA_5uM_CRN_0uM_R6G_10uM_Q_RamanShift__6__10-56-15-295.txt Node

Date: Mon Jul 18 10:56:15 BST 2022
User: TCL
Spectrometer: QEP01345
Trigger mode: 4
Integration Time (sec): 7.000000E0
Scans to average: 10
Electric dark correction enabled: true
Nonlinearity correction enabled: false
Boxcar width: 0
XAxis mode: Raman Shifts
Number of Pixels in Spectrum: 1044
>>>>>Begin Spectral Data<<<<<
46.04893	-1.6125
50.45542	-2.1125
54.85868	-3.0125
59.25871	-2.6125
63.6555	168.2875
68.04907	171.6875
72.43941	176.3875
76.82654	180.8875
81.21044	187.8875
85.59113	196.0875
89.96862	200.0875
94.34289	205.7875
98.71396	217.0875
103.08183	217.8875
107.4465	226.8875
111.80798	238.1875
116.16626	246.3875
120.52136	257.5875
124.87327	263.7875
129.222	282.9875
133.56755	307.8875
137.90993	334.8875
142.24913	373.0875
146.58517	428.3875
150.91804	501.9875
155.24774	608.6875
159.57429	769.2875
163.89768	993.5875
168.21792	1333.4875
172.53501	1834.9875
176.84895	2586.9875
181.15975	3649.7875
185.46741	5122.2875
189.77193	7078.8875
194.07331	9480.2875
198.37157	12203.5875
202.6667	15046.4875
206.9587	17833.4875
211.24758	20636.0875
215.53334	23476.0875
219.81599	26496.0875
224.09553	29889.9875
228.37195	33759.3875
232.64527	37853.4875
236.91549	42013.0875
241.18261	45948.4875
245.44663	49365.3875
249.70755	52126.5875
253.96539	54477.7875
258.22014	56536.1875
262.4718	58274.8875
266.72039	59505.2875
270.96589	59963.1875
275.20832	59834.2875
279.44768	59288.1875
283.68397	58539.8875
287.91719	58050.7875
292.14735	57827.0875
296.37445	58278.2875
300.59849	59251.5875
304.81948	60467.4875
309.03742	61642.3875
313.25231	62079.5875
317.46415	61474.8875
321.67296	59947.2875
325.87872	58506.4875
330.08145	57765.5875
334.28114	57877.2875
338.47781	58463.6875
342.67145	59576.3875
346.86207	60912.5875
351.04966	62657.6875
355.23424	64369.8875
359.4158	65682.1875
363.59435	66491.5875
367.76989	66893.7875
371.94243	67010.9875
376.11196	67123.8875
380.27849	67376.9875
384.44203	67899.2875
388.60257	68510.0875
392.76012	69154.7875
396.91468	69874.0875
401.06626	70875.3875
405.21485	71371.2875
409.36047	70748.2875
413.50311	69146.1875
417.64277	67971.0875
421.77947	67503.6875
425.9132	67334.8875
430.04396	67574.1875
434.17176	67952.4875
438.2966	68878.7875
442.41849	70646.5875
446.53742	73130.4875
450.6534	75705.2875
454.76644	77155.2875
458.87653	77397.7875
462.98368	76434.2875
467.08789	75053.7875
471.18916	73273.8875
475.2875	71187.8875
479.38291	69418.8875
483.4754	68009.9875
487.56496	67049.8875
491.6516	66402.5875
495.73531	66294.6875
499.81612	66572.5875
503.89401	67215.6875
507.96899	67522.2875
512.04106	67543.2875
516.11023	67702.3875
520.1765	67834.9875
524.23987	68057.3875
528.30034	68189.1875
532.35792	68033.0875
536.41261	66973.7875
540.46441	65800.7875
544.51333	65326.9875
548.55936	65844.5875
552.60252	67326.9875
556.64279	69225.7875
560.6802	70672.1875
564.71473	71364.4875
568.7464	72028.1875
572.7752	73005.3875
576.80114	73661.3875
580.82422	75079.9875
584.84444	77608.8875
588.86181	81004.8875
592.87633	84195.2875
596.888	84988.7875
600.89682	83375.5875
604.9028	85710.9875
608.90594	96614.2875
612.90624	107285.0875
616.90371	98519.9875
620.89834	79157.9875
624.89015	71062.9875
628.87913	70282.3875
632.86528	71273.1875
636.84862	71440.1875
640.82913	69763.9875
644.80683	67284.6875
648.78172	65774.2875
652.75379	65812.0875
656.72306	67391.8875
660.68952	69296.3875
664.65319	68790.6875
668.61405	67636.5875
672.57211	68065.4875
676.52738	68376.8875
680.47986	67200.3875
684.42955	65844.1875
688.37646	65401.8875
692.32058	66245.8875
696.26192	67976.6875
700.20048	69434.0875
704.13626	69736.8875
708.06928	68946.1875
711.99952	68196.1875
715.927	68119.7875
719.85171	68655.4875
723.77365	68414.1875
727.69284	67321.1875
731.60928	66383.5875
735.52295	66392.6875
739.43388	66629.5875
743.34206	67052.1875
747.24749	67340.9875
751.15017	67846.0875
755.05012	69056.6875
758.94733	71629.1875
762.8418	76577.6875
766.73354	84296.1875
770.62254	91046.3875
774.50882	92478.6875
778.39237	88898.4875
782.27321	82722.6875
786.15132	76459.7875
790.02671	71881.7875
793.89938	69509.5875
797.76935	68285.2875
801.6366	67770.3875
805.50115	67281.6875
809.36299	66766.5875
813.22213	66324.8875
817.07857	66042.0875
820.93231	65760.5875
824.78336	65702.0875
828.63172	65740.9875
832.47738	65675.9875
836.32036	65397.6875
840.16066	65361.8875
843.99827	65465.2875
847.8332	65415.6875
851.66546	65512.6875
855.49504	65788.6875
859.32195	65796.9875
863.1462	65686.3875
866.96777	65609.9875
870.78668	65616.9875
874.60293	65768.6875
878.41652	66114.1875
882.22745	66578.0875
886.03573	66984.1875
889.84136	66886.9875
893.64433	66540.8875
897.44466	66089.5875
901.24235	65833.7875
905.0374	65683.0875
908.8298	65285.2875
912.61957	65145.7875
916.40671	65404.5875
920.19121	66049.0875
923.97308	66952.9875
927.75233	67603.0875
931.52895	67771.7875
935.30295	67036.0875
939.07433	65756.4875
942.84309	64792.4875
946.60924	64376.8875
950.37278	64286.9875
954.13371	64354.6875
957.89203	64353.3875
961.64774	64346.1875
965.40086	64344.9875
969.15137	64412.5875
972.89929	64363.8875
976.64461	64485.1875
980.38733	64681.2875
984.12747	65019.7875
987.86502	65531.8875
991.59999	66118.0875
995.33237	67107.6875
999.06217	68754.6875
1002.78939	70824.6875
1006.51404	72771.5875
1010.23611	74738.5875
1013.95561	76103.5875
1017.67255	76499.6875
1021.38692	75538.4875
1025.09872	73712.2875
1028.80796	72238.5875
1032.51465	72010.0875
1036.21877	72635.9875
1039.92035	72926.0875
1043.61937	72760.2875
1047.31584	72180.7875
1051.00976	71555.4875
1054.70114	71372.0875
1058.38998	71713.4875
1062.07627	72412.1875
1065.76003	73372.6875
1069.44126	74793.1875
1073.11995	77033.4875
1076.79611	79235.0875
1080.46974	80347.8875
1084.14085	81051.8875
1087.80943	82040.7875
1091.47549	82928.9875
1095.13903	82950.6875
1098.80005	81891.2875
1102.45857	80705.5875
1106.11456	79464.1875
1109.76805	78211.5875
1113.41903	78004.5875
1117.06751	78607.1875
1120.71348	79688.3875
1124.35696	80876.6875
1127.99793	82010.6875
1131.63641	81936.8875
1135.2724	80654.0875
1138.90589	79450.1875
1142.5369	78944.4875
1146.16542	79084.8875
1149.79145	79366.6875
1153.415	79279.5875
1157.03607	79134.1875
1160.65467	80203.5875
1164.27079	82679.2875
1167.88443	86640.8875
1171.49561	92088.0875
1175.10432	99495.9875
1178.71056	108932.6875
1182.31434	117393.6875
1185.91565	121064.8875
1189.51451	120335.4875
1193.11091	117086.9875
1196.70485	112703.9875
1200.29634	108679.6875
1203.88538	105525.3875
1207.47197	102689.4875
1211.05612	99777.0875
1214.63782	97139.4875
1218.21708	95107.9875
1221.79391	94015.8875
1225.36829	93888.4875
1228.94024	93370.1875
1232.50976	91876.4875
1236.07685	90087.1875
1239.6415	89065.0875
1243.20374	88980.5875
1246.76355	89841.8875
1250.32093	91389.4875
1253.8759	93720.8875
1257.42845	97122.1875
1260.97859	100897.2875
1264.52631	104832.5875
1268.07163	108503.2875
1271.61453	111568.3875
1275.15503	113819.3875
1278.69312	115324.0875
1282.22882	115948.5875
1285.76211	117453.1875
1289.29301	120098.8875
1292.82151	123475.0875
1296.34761	128348.0875
1299.87133	134779.5875
1303.39266	143745.8875
1306.9116	154716.3875
1310.42815	166025.8875
1313.94233	172425.3875
1317.45412	170655.1875
1320.96354	163823.9875
1324.47058	155896.1875
1327.97525	148645.2875
1331.47754	143825.4875
1334.97747	141493.5875
1338.47502	141294.7875
1341.97022	142933.5875
1345.46305	146058.3875
1348.95352	149755.5875
1352.44163	153987.6875
1355.92738	160175.7875
1359.41078	169019.4875
1362.89183	175924.3875
1366.37053	171299.2875
1369.84688	153807.9875
1373.32088	134724.1875
1376.79254	122728.2875
1380.26186	117780.4875
1383.72883	116194.1875
1387.19347	115044.5875
1390.65578	112974.9875
1394.11575	111119.1875
1397.57339	110261.4875
1401.0287	110222.4875
1404.48168	110519.4875
1407.93234	111080.6875
1411.38068	111207.7875
1414.82669	110122.6875
1418.27039	107975.2875
1421.71177	105936.8875
1425.15083	104769.7875
1428.58758	105158.8875
1432.02203	107385.2875
1435.45416	110346.7875
1438.88399	112455.4875
1442.31151	112951.2875
1445.73673	112862.7875
1449.15965	112335.9875
1452.58027	111519.0875
1455.9986	110745.8875
1459.41463	111301.3875
1462.82837	113413.4875
1466.23982	115790.0875
1469.64898	117463.0875
1473.05586	118216.2875
1476.46045	118532.3875
1479.86276	118092.0875
1483.26279	117589.2875
1486.66054	117940.5875
1490.05602	119340.9875
1493.44922	121902.3875
1496.84016	125604.7875
1500.22882	131165.4875
1503.61521	138646.5875
1506.99934	145974.0875
1510.38121	150548.7875
1513.76081	149296.0875
1517.13816	142222.9875
1520.51324	132873.8875
1523.88607	125343.5875
1527.25665	121242.4875
1530.62498	119714.9875
1533.99105	118959.8875
1537.35488	117803.9875
1540.71647	116431.3875
1544.07581	114512.4875
1547.4329	112485.0875
1550.78776	110511.9875
1554.14038	108828.9875
1557.49077	108024.0875
1560.83892	108245.9875
1564.18484	109446.4875
1567.52853	110955.5875
1570.86999	112206.8875
1574.20922	113010.8875
1577.54624	112487.1875
1580.88103	109691.8875
1584.2136	107384.0875
1587.54395	107932.5875
1590.87208	112390.9875
1594.19801	120184.2875
1597.52172	128983.0875
1600.84321	133119.5875
1604.16251	129505.8875
1607.47959	121368.0875
1610.79447	111276.7875
1614.10715	101287.5875
1617.41763	93279.5875
1620.7259	87849.3875
1624.03199	85197.7875
1627.33587	85175.5875
1630.63757	87912.7875
1633.93707	93822.9875
1637.23439	103880.9875
1640.52951	118124.2875
1643.82246	134526.3875
1647.11321	146503.8875
1650.40179	147507.2875
1653.68819	135321.0875
1656.97241	116043.3875
1660.25446	98262.2875
1663.53433	85952.9875
1666.81203	78365.4875
1670.08756	73955.9875
1673.36092	71054.1875
1676.63211	69069.4875
1679.90115	67714.6875
1683.16801	66708.9875
1686.43272	65831.4875
1689.69527	65265.0875
1692.95567	64828.7875
1696.2139	64394.3875
1699.46999	64174.8875
1702.72392	64011.9875
1705.97571	63960.9875
1709.22535	63900.4875
1712.47284	63932.2875
1715.71819	63939.0875
1718.96139	63790.3875
1722.20246	63502.7875
1725.44139	63053.0875
1728.67818	62693.8875
1731.91284	62309.4875
1735.14537	61936.2875
1738.37576	61658.5875
1741.60403	61519.4875
1744.83017	61300.4875
1748.05418	61150.7875
1751.27607	60952.7875
1754.49584	60775.4875
1757.71349	60656.2875
1760.92903	60585.5875
1764.14244	60464.9875
1767.35375	60368.2875
1770.56294	60168.8875
1773.77002	60091.9875
1776.97499	60048.8875
1780.17785	59879.0875
1783.37861	59727.4875
1786.57727	59636.4875
1789.77382	59544.2875
1792.96828	59420.9875
1796.16064	59302.3875
1799.3509	59305.1875
1802.53907	59101.9875
1805.72514	58905.1875
1808.90913	58790.1875
1812.09102	58688.7875
1815.27083	58516.8875
1818.44856	58382.9875
1821.6242	58312.9875
1824.79776	58276.5875
1827.96924	58075.8875
1831.13864	57894.3875
1834.30597	57891.8875
1837.47122	57819.9875
1840.6344	57829.8875
1843.7955	57906.8875
1846.95454	57867.1875
1850.11151	57659.0875
1853.26642	57580.2875
1856.41926	57485.5875
1859.57004	57441.0875
1862.71876	57498.7875
1865.86542	57465.4875
1869.01003	57476.5875
1872.15258	57454.0875
1875.29308	57329.7875
1878.43152	57185.6875
1881.56792	57152.7875
1884.70227	57162.1875
1887.83457	57053.1875
1890.96482	56982.1875
1894.09304	57046.9875
1897.21921	56914.4875
1900.34335	56871.5875
1903.46544	56814.9875
1906.58551	56747.1875
1909.70353	56632.4875
1912.81953	56473.4875
1915.93349	56341.9875
1919.04543	56233.1875
1922.15534	56266.9875
1925.26322	56065.2875
1928.36908	55994.6875
1931.47292	55822.2875
1934.57473	55617.2875
1937.67453	55544.0875
1940.77232	55369.1875
1943.86808	55195.2875
1946.96184	54969.5875
1950.05358	54799.1875
1953.14331	54699.8875
1956.23103	54592.4875
1959.31675	54392.2875
1962.40046	54296.5875
1965.48217	54123.7875
1968.56188	53963.4875
1971.63959	53862.7875
1974.7153	53719.9875
1977.78901	53552.9875
1980.86073	53378.0875
1983.93046	53272.2875
1986.99819	52980.8875
1990.06394	52879.2875
1993.1277	52754.5875
1996.18947	52539.7875
1999.24925	52435.1875
2002.30706	52278.0875
2005.36288	52269.6875
2008.41672	52145.1875
2011.46859	51909.9875
2014.51848	51801.9875
2017.56639	51685.5875
2020.61233	51672.3875
2023.6563	51530.7875
2026.6983	51341.5875
2029.73833	51090.4875
2032.7764	50997.4875
2035.8125	50949.0875
2038.84664	50877.2875
2041.87881	50802.8875
2044.90903	50648.2875
2047.93729	50547.7875
2050.96359	50603.0875
2053.98794	50501.9875
2057.01034	50448.4875
2060.03078	50331.5875
2063.04927	50291.7875
2066.06582	50196.1875
2069.08042	50143.2875
2072.09307	50138.2875
2075.10378	50083.1875
2078.11255	50034.4875
2081.11938	50019.3875
2084.12426	49893.6875
2087.12722	49865.8875
2090.12824	49812.8875
2093.12732	49931.1875
2096.12447	49936.8875
2099.11969	49952.7875
2102.11299	49990.3875
2105.10435	50026.4875
2108.09379	50063.8875
2111.08131	50077.5875
2114.0669	50032.9875
2117.05057	50046.7875
2120.03233	50146.1875
2123.01216	50186.5875
2125.99008	50151.4875
2128.96609	50241.3875
2131.94018	50248.8875
2134.91236	50311.3875
2137.88263	50322.0875
2140.851	50396.1875
2143.81746	50389.2875
2146.78201	50380.4875
2149.74466	50364.6875
2152.7054	50346.4875
2155.66425	50352.6875
2158.6212	50310.5875
2161.57625	50264.7875
2164.52941	50277.0875
2167.48067	50236.8875
2170.43004	50217.7875
2173.37752	50159.2875
2176.32311	50172.8875
2179.26681	50132.0875
2182.20863	50213.0875
2185.14856	50233.3875
2188.08661	50224.6875
2191.02278	50224.4875
2193.95707	50206.6875
2196.88948	50172.0875
2199.82001	50126.1875
2202.74867	50064.0875
2205.67545	50083.2875
2208.60037	49973.1875
2211.52341	49826.6875
2214.44458	49670.4875
2217.36388	49601.0875
2220.28132	49569.9875
2223.1969	49479.8875
2226.11061	49349.7875
2229.02246	49221.7875
2231.93245	49208.4875
2234.84058	49174.9875
2237.74686	49034.2875
2240.65128	48947.7875
2243.55385	48814.0875
2246.45456	48797.1875
2249.35343	48767.8875
2252.25044	48780.6875
2255.14561	48665.6875
2258.03893	48629.9875
2260.93041	48532.3875
2263.82004	48378.2875
2266.70783	48267.9875
2269.59378	48222.4875
2272.4779	48206.3875
2275.36017	48070.9875
2278.24061	47966.7875
2281.11922	47879.0875
2283.996	47801.2875
2286.87094	47760.9875
2289.74405	47686.1875
2292.61534	47643.3875
2295.4848	47578.0875
2298.35243	47582.3875
2301.21824	47594.0875
2304.08223	47543.8875
2306.94439	47497.9875
2309.80474	47492.1875
2312.66327	47560.2875
2315.51999	47504.1875
2318.37489	47579.1875
2321.22797	47441.7875
2324.07925	47362.6875
2326.92871	47307.5875
2329.77637	47236.8875
2332.62222	47159.7875
2335.46626	47200.7875
2338.3085	47181.3875
2341.14893	47217.6875
2343.98756	47182.6875
2346.8244	47144.3875
2349.65943	47243.8875
2352.49267	47241.0875
2355.32411	47208.1875
2358.15376	47182.9875
2360.98161	47139.8875
2363.80768	47160.2875
2366.63195	47130.0875
2369.45444	47032.1875
2372.27514	46920.4875
2375.09405	46953.1875
2377.91118	46864.7875
2380.72652	46717.1875
2383.54009	46527.5875
2386.35187	46524.0875
2389.16188	46464.7875
2391.97011	46426.8875
2394.77657	46330.6875
2397.58125	46228.3875
2400.38416	46151.2875
2403.18529	46026.0875
2405.98466	46034.5875
2408.78226	45988.6875
2411.57809	46002.0875
2414.37216	45891.9875
2417.16446	45927.2875
2419.955	45829.7875
2422.74378	45878.9875
2425.5308	45825.6875
2428.31606	45722.9875
2431.09956	45770.1875
2433.88131	45721.0875
2436.6613	45713.9875
2439.43954	45713.2875
2442.21603	45698.5875
2444.99077	45663.1875
2447.76377	45630.6875
2450.53501	45612.5875
2453.30451	45649.4875
2456.07226	45648.8875
2458.83827	45570.5875
2461.60254	45536.9875
2464.36507	45556.3875
2467.12586	45623.1875
2469.88492	45675.9875
2472.64224	45486.5875
2475.39782	45484.8875
2478.15167	45579.2875
2480.90379	45659.3875
2483.65417	45762.8875
2486.40283	45790.6875
2489.14976	45820.0875
2491.89497	45731.1875
2494.63845	45742.9875
2497.3802	45588.4875
2500.12024	45596.8875
2502.85855	45539.5875
2505.59514	45447.0875
2508.33002	45440.2875
2511.06318	45342.2875
2513.79462	45378.8875
2516.52435	45337.1875
2519.25237	45303.3875
2521.97867	45262.4875
2524.70327	45304.2875
2527.42616	45285.2875
2530.14734	45275.1875
2532.86681	45217.3875
2535.58458	45221.8875
2538.30065	45222.7875
2541.01501	45247.1875
2543.72768	45249.2875
2546.43864	45244.1875
2549.14791	45189.9875
2551.85548	45220.9875
2554.56136	45127.2875
2557.26554	45042.6875
2559.96803	45000.4875
2562.66883	44943.7875
2565.36794	44839.0875
2568.06536	44788.4875
2570.7611	44715.3875
2573.45514	44610.8875
2576.14751	44609.7875
2578.83819	44515.0875
2581.52719	44612.7875
2584.21451	44504.8875
2586.90015	44439.2875
2589.58411	44413.3875
2592.2664	44482.1875
2594.94701	44343.9875
2597.62594	44354.9875
2600.30321	44385.9875
2602.9788	44284.0875
2605.65273	44240.2875
2608.32498	44234.4875
2610.99557	44204.6875
2613.66449	44311.8875
2616.33175	44258.9875
2618.99734	44235.8875
2621.66128	44145.1875
2624.32355	44089.7875
2626.98416	44105.2875
2629.64311	44042.3875
2632.30041	43985.4875
2634.95605	43891.5875
2637.61004	43877.4875
2640.26238	43931.7875
2642.91306	43862.9875
2645.56209	43782.9875
2648.20948	43819.1875
2650.85521	43794.9875
2653.4993	43887.6875
2656.14175	43886.2875
2658.78255	43969.6875
2661.42171	44051.5875
2664.05923	44128.5875
2666.6951	44150.3875
2669.32934	44172.4875
2671.96194	44099.5875
2674.59291	44152.0875
2677.22224	44091.9875
2679.84993	44016.4875
2682.476	43981.7875
2685.10043	43918.7875
2687.72324	43903.3875
2690.34441	43892.5875
2692.96396	43869.0875
2695.58188	43835.7875
2698.19818	43801.8875
2700.81285	43944.6875
2703.4259	43942.2875
2706.03733	43989.4875
2708.64714	43918.0875
2711.25533	43931.2875
2713.86191	43955.6875
2716.46687	44074.5875
2719.07021	44115.6875
2721.67194	44118.0875
2724.27206	44097.4875
2726.87057	44119.3875
2729.46747	44051.2875
2732.06276	44113.0875
2734.65644	44124.0875
2737.24852	44139.4875
2739.83899	44006.1875
2742.42786	43992.6875
2745.01513	43891.3875
2747.60079	43914.8875
2750.18486	43942.3875
2752.76733	43970.7875
2755.3482	44009.8875
2757.92747	43973.1875
2760.50515	43929.7875
2763.08123	43858.4875
2765.65573	43764.7875
2768.22863	43731.5875
2770.79994	43759.1875
2773.36967	43829.7875
2775.9378	43727.6875
2778.50435	43673.8875
2781.06932	43703.8875
2783.6327	43685.1875
2786.1945	43616.3875
2788.75471	43541.2875
2791.31335	43419.2875
2793.87041	43254.8875
2796.42589	43255.1875
2798.97979	43245.2875
2801.53212	43169.2875
2804.08288	43122.0875
2806.63206	43050.1875
2809.17967	42979.4875
2811.72571	42904.8875
2814.27018	42815.0875
2816.81308	42652.5875
2819.35442	42520.9875
2821.89419	42446.4875
2824.43239	42413.6875
2826.96904	42312.4875
2829.50412	42361.9875
2832.03763	42311.1875
2834.56959	42320.6875
2837.1	42243.7875
2839.62884	42289.7875
2842.15613	42149.2875
2844.68186	42106.6875
2847.20604	41986.6875
2849.72867	41947.5875
2852.24974	41860.9875
2854.76927	41866.6875
2857.28724	41833.1875
2859.80367	41872.6875
2862.31855	41852.8875
2864.83189	41858.0875
2867.34368	41842.8875
2869.85393	41828.4875
2872.36264	41743.8875
2874.8698	41659.3875
2877.37543	41673.2875
2879.87952	41628.0875
2882.38207	41600.6875
2884.88308	41525.7875
2887.38256	41553.4875
2889.88051	41463.7875
2892.37692	41480.1875
2894.8718	41502.0875
2897.36515	41587.3875
2899.85698	41532.0875
2902.34727	41665.9875
2904.83604	41678.2875
2907.32328	41795.3875
2909.809	41908.9875
2912.29319	41997.3875
2914.77587	41965.3875
2917.25702	41953.5875
2919.73665	41837.3875
2922.21476	41868.1875
2924.69136	41802.9875
2927.16644	41683.4875
2929.64	41620.8875
2932.11205	41486.1875
2934.58258	41298.3875
2937.05161	41321.8875
2939.51912	41314.5875
2941.98513	41239.5875
2944.44962	41227.8875
2946.91261	41133.2875
2949.37409	41198.9875
2951.83407	41154.0875
2954.29254	41130.9875
2956.74951	41149.3875
2959.20498	41128.0875
2961.65895	41031.6875
2964.11142	41076.5875
2966.56239	40959.3875
2969.01186	40952.4875
2971.45984	40911.9875
2973.90632	40849.9875
2976.35131	40750.3875
2978.7948	40742.5875
2981.23681	40602.5875
2983.67732	40604.0875
2986.11635	40488.4875
2988.55388	40399.7875
2990.98993	40347.2875
2993.4245	40184.8875
2995.85758	40083.0875
2998.28917	40061.9875
3000.71928	39956.2875
3003.14791	39906.0875
3005.57506	39762.4875
3008.00073	39607.4875
3010.42493	39537.3875
3012.84764	39421.3875
3015.26888	39398.4875
3017.68865	39317.8875
3020.10694	39308.6875
3022.52376	39178.2875
3024.9391	39161.9875
3027.35298	39125.5875
3029.76539	39090.0875
3032.17632	39059.0875
3034.5858	38986.4875
3036.9938	38952.3875
3039.40034	38917.9875
3041.80542	38811.7875
3044.20903	38726.2875
3046.61118	38686.9875
3049.01187	38586.0875
3051.4111	38559.6875
3053.80888	38488.7875
3056.20519	38418.8875
3058.60005	38245.2875
3060.99345	38180.7875
3063.3854	38047.1875
3065.7759	37951.1875
3068.16494	37818.5875
3070.55254	37679.3875
3072.93868	37615.0875
3075.32338	37484.8875
3077.70662	37480.3875
3080.08842	37384.1875
3082.46878	37265.8875
3084.84769	37229.5875
3087.22515	37245.3875
3089.60118	37181.6875
3091.97576	37123.1875
3094.3489	37141.9875
3096.72061	37074.7875
3099.09087	37064.5875
3101.4597	37040.1875
3103.82709	36927.2875
3106.19305	36908.0875
3108.55757	36883.6875
3110.92066	36779.2875
3113.28232	36787.7875
3115.64255	36694.2875
3118.00134	36620.2875
3120.35871	36528.5875
3122.71466	36412.5875
3125.06917	36265.9875
3127.42226	36200.4875
3129.77393	36139.8875
3132.12417	36059.7875
3134.47299	36051.5875
3136.82039	35998.1875
3139.16636	35924.2875
3141.51092	35913.3875
3143.85406	35933.8875
3146.19579	35904.5875
3148.53609	35875.6875
3150.87499	36013.7875
3153.21246	35955.8875
3155.54853	35945.0875
3157.88318	35827.8875
3160.21642	35884.8875
3162.54826	35886.7875
3164.87868	35837.2875
3167.2077	35858.5875
3169.5353	35788.2875
3171.86151	35708.4875
3174.18631	35638.3875
3176.5097	35552.1875
3178.83169	35571.4875
3181.15228	35597.5875
3183.47147	35478.1875
3185.78926	35391.2875
3188.10565	35353.5875
3190.42065	35344.2875
3192.73424	35333.8875
3195.04645	35295.7875
3197.35725	35231.3875
3199.66667	35184.0875
3201.97469	35161.9875
3204.28132	35060.7875
3206.58656	35078.5875
3208.8904	35038.0875
3211.19287	35009.9875
3213.49394	35008.1875
3215.79363	35025.1875
3218.09193	35080.6875
3220.38884	35044.0875
3222.68438	35052.6875
3224.97853	34953.2875
3227.2713	34926.3875
3229.56269	34925.6875
3231.8527	34920.2875
3234.14133	34915.4875
3236.42858	34802.3875
3238.71446	34684.7875
3240.99896	34596.7875
3243.28209	34569.1875
3245.56384	34487.3875
3247.84423	34445.8875
3250.12324	34383.1875
3252.40088	34305.6875
3254.67715	34285.2875
3256.95205	34294.3875
3259.22558	34302.2875
3261.49775	34247.2875
3263.76855	34202.9875
3266.03799	34045.1875
3268.30606	34060.5875
3270.57277	33982.6875
3272.83812	33993.0875
3275.10211	33892.8875
3277.36474	33781.1875
3279.62601	33824.1875
3281.88593	33801.1875
3284.14448	33888.4875
3286.40168	33883.0875
3288.65753	33770.8875
3290.91202	33747.8875
3293.16516	33707.3875
3295.41695	33618.9875
3297.66738	33472.5875
3299.91647	33305.3875
3302.16421	33151.1875
3304.4106	33027.3875
3306.65564	32851.4875
3308.89933	32653.4875
3311.14169	32409.3875
3313.38269	32117.5875
3315.62236	32019.7875
3317.86068	31807.8875
3320.09766	31588.0875
3322.3333	31363.3875
3324.5676	31317.4875
3326.80056	30921.1875
3329.03219	30739.5875
3331.26248	8.1875
3333.49143	0.6875
3335.71905	0.1875
