Data from AgNPs_UA_5uM_CRN_0uM_R6G_10uM_Q_RamanShift__14__11-05-35-306.txt Node

Date: Mon Jul 18 11:05:35 BST 2022
User: TCL
Spectrometer: QEP01345
Trigger mode: 4
Integration Time (sec): 7.000000E0
Scans to average: 10
Electric dark correction enabled: true
Nonlinearity correction enabled: false
Boxcar width: 0
XAxis mode: Raman Shifts
Number of Pixels in Spectrum: 1044
>>>>>Begin Spectral Data<<<<<
46.04893	-1.125
50.45542	-2.425
54.85868	-2.225
59.25871	-1.825
63.6555	182.975
68.04907	193.175
72.43941	196.475
76.82654	202.475
81.21044	204.275
85.59113	212.775
89.96862	219.775
94.34289	225.175
98.71396	235.075
103.08183	239.075
107.4465	246.975
111.80798	258.275
116.16626	268.075
120.52136	278.475
124.87327	291.775
129.222	304.975
133.56755	336.675
137.90993	364.875
142.24913	403.175
146.58517	458.975
150.91804	530.675
155.24774	640.975
159.57429	798.075
163.89768	1034.975
168.21792	1390.175
172.53501	1890.375
176.84895	2659.675
181.15975	3760.775
185.46741	5295.275
189.77193	7362.375
194.07331	9865.275
198.37157	12745.275
202.6667	15763.175
206.9587	18762.975
211.24758	21689.475
215.53334	24608.675
219.81599	27673.775
224.09553	31007.875
228.37195	34758.775
232.64527	38852.375
236.91549	43171.075
241.18261	47551.975
245.44663	51725.375
249.70755	55696.275
253.96539	59090.275
258.22014	61987.175
262.4718	64206.375
266.72039	65561.075
270.96589	66229.775
275.20832	66125.175
279.44768	65641.875
283.68397	64901.675
287.91719	64123.775
292.14735	63543.975
296.37445	63242.175
300.59849	63201.775
304.81948	63298.475
309.03742	63391.375
313.25231	63381.275
317.46415	62932.375
321.67296	62175.175
325.87872	61675.075
330.08145	61568.775
334.28114	61922.375
338.47781	62605.675
342.67145	63431.875
346.86207	64445.675
351.04966	65589.775
355.23424	66715.175
359.4158	67872.675
363.59435	68937.475
367.76989	69651.975
371.94243	70215.575
376.11196	70730.275
380.27849	71189.475
384.44203	71846.675
388.60257	72521.275
392.76012	73225.075
396.91468	74096.875
401.06626	75010.375
405.21485	75504.275
409.36047	75584.475
413.50311	75092.875
417.64277	74800.575
421.77947	74734.375
425.9132	74845.175
430.04396	75189.975
434.17176	75545.475
438.2966	76142.775
442.41849	76701.375
446.53742	77615.075
450.6534	78788.375
454.76644	79836.575
458.87653	80423.675
462.98368	80736.275
467.08789	80855.775
471.18916	80664.575
475.2875	80231.275
479.38291	79735.375
483.4754	79357.075
487.56496	79201.175
491.6516	78923.175
495.73531	78888.775
499.81612	79052.275
503.89401	79527.875
507.96899	79827.175
512.04106	80055.175
516.11023	80273.175
520.1765	80349.475
524.23987	80474.175
528.30034	80295.375
532.35792	80442.875
536.41261	80336.075
540.46441	80081.075
544.51333	80114.775
548.55936	80584.975
552.60252	81377.275
556.64279	82140.275
560.6802	82821.175
564.71473	83351.675
568.7464	83617.275
572.7752	83866.275
576.80114	84017.575
580.82422	84349.375
584.84444	84881.775
588.86181	85147.775
592.87633	85305.075
596.888	85767.175
600.89682	86984.275
604.9028	90003.575
608.90594	96123.575
612.90624	101296.775
616.90371	97213.675
620.89834	88467.575
624.89015	84977.375
628.87913	84831.275
632.86528	85614.075
636.84862	86158.475
640.82913	85869.175
644.80683	84904.775
648.78172	84220.475
652.75379	84203.775
656.72306	84887.375
660.68952	86071.775
664.65319	86195.675
668.61405	86081.475
672.57211	86544.875
676.52738	86675.175
680.47986	86162.775
684.42955	85540.075
688.37646	85484.475
692.32058	85991.275
696.26192	86758.975
700.20048	87594.975
704.13626	87935.975
708.06928	87803.375
711.99952	87486.875
715.927	87192.075
719.85171	87423.575
723.77365	87344.175
727.69284	87196.175
731.60928	86943.775
735.52295	86872.475
739.43388	86919.975
743.34206	87111.975
747.24749	87309.675
751.15017	87663.375
755.05012	88070.475
758.94733	89137.375
762.8418	91320.375
766.73354	94729.775
770.62254	97762.375
774.50882	98830.075
778.39237	97969.375
782.27321	95779.475
786.15132	92997.575
790.02671	90789.275
793.89938	89434.875
797.76935	88751.775
801.6366	88384.375
805.50115	88243.575
809.36299	88194.575
813.22213	88141.475
817.07857	88076.575
820.93231	88228.975
824.78336	88297.275
828.63172	88542.175
832.47738	88510.375
836.32036	88405.175
840.16066	88471.775
843.99827	88526.675
847.8332	88499.075
851.66546	88710.075
855.49504	88944.175
859.32195	89113.575
863.1462	89186.275
866.96777	89346.675
870.78668	89490.275
874.60293	89733.075
878.41652	89962.775
882.22745	90226.175
886.03573	90434.475
889.84136	90507.275
893.64433	90456.075
897.44466	90314.575
901.24235	90372.175
905.0374	90435.775
908.8298	90430.475
912.61957	90358.675
916.40671	90505.875
920.19121	90560.875
923.97308	90776.075
927.75233	91051.575
931.52895	91135.975
935.30295	90976.275
939.07433	90522.175
942.84309	90046.675
946.60924	89635.375
950.37278	89578.375
954.13371	89534.375
957.89203	89509.775
961.64774	89567.575
965.40086	89510.675
969.15137	89314.275
972.89929	89323.975
976.64461	89321.075
980.38733	89483.475
984.12747	89599.675
987.86502	89829.775
991.59999	90021.775
995.33237	90229.875
999.06217	90758.175
1002.78939	91407.175
1006.51404	92222.675
1010.23611	92926.175
1013.95561	93553.675
1017.67255	93755.075
1021.38692	93707.275
1025.09872	93477.875
1028.80796	92862.575
1032.51465	92476.375
1036.21877	92575.075
1039.92035	92903.475
1043.61937	93133.775
1047.31584	93233.675
1051.00976	93462.475
1054.70114	93656.675
1058.38998	93971.075
1062.07627	94509.875
1065.76003	95082.675
1069.44126	95769.375
1073.11995	96911.075
1076.79611	98122.275
1080.46974	98561.675
1084.14085	98632.675
1087.80943	98883.375
1091.47549	99200.375
1095.13903	99499.375
1098.80005	99693.475
1102.45857	99965.575
1106.11456	99603.575
1109.76805	98604.175
1113.41903	97941.575
1117.06751	97928.275
1120.71348	98141.975
1124.35696	98436.375
1127.99793	98820.775
1131.63641	98657.875
1135.2724	97993.175
1138.90589	97384.275
1142.5369	97033.075
1146.16542	96894.275
1149.79145	96717.175
1153.415	96536.475
1157.03607	96329.675
1160.65467	96832.675
1164.27079	97883.675
1167.88443	99414.675
1171.49561	101564.875
1175.10432	104229.375
1178.71056	107750.375
1182.31434	110837.675
1185.91565	112638.575
1189.51451	113555.975
1193.11091	113613.175
1196.70485	112649.475
1200.29634	111223.175
1203.88538	109564.375
1207.47197	107574.375
1211.05612	105990.475
1214.63782	104605.975
1218.21708	103405.575
1221.79391	102297.175
1225.36829	101579.375
1228.94024	101370.675
1232.50976	101475.875
1236.07685	101728.775
1239.6415	101902.475
1243.20374	102195.175
1246.76355	102484.375
1250.32093	102872.675
1253.8759	103768.975
1257.42845	105137.375
1260.97859	106566.875
1264.52631	107761.475
1268.07163	108886.175
1271.61453	109583.275
1275.15503	110221.075
1278.69312	110573.275
1282.22882	110648.875
1285.76211	111131.375
1289.29301	111783.375
1292.82151	112452.075
1296.34761	113655.375
1299.87133	115192.575
1303.39266	117439.275
1306.9116	120308.975
1310.42815	123599.175
1313.94233	125477.575
1317.45412	125422.675
1320.96354	124564.575
1324.47058	123352.175
1327.97525	121926.975
1331.47754	120859.675
1334.97747	120384.775
1338.47502	121064.275
1341.97022	122972.375
1345.46305	125972.375
1348.95352	128879.675
1352.44163	130805.375
1355.92738	132066.775
1359.41078	133371.475
1362.89183	134047.075
1366.37053	131171.075
1369.84688	124371.675
1373.32088	117675.575
1376.79254	113003.475
1380.26186	110240.375
1383.72883	108517.375
1387.19347	107021.675
1390.65578	105443.575
1394.11575	104198.775
1397.57339	103102.175
1401.0287	102639.675
1404.48168	102589.875
1407.93234	102737.875
1411.38068	103017.975
1414.82669	103034.575
1418.27039	102430.075
1421.71177	101708.075
1425.15083	101269.675
1428.58758	100830.775
1432.02203	100858.075
1435.45416	101003.275
1438.88399	101180.175
1442.31151	101301.275
1445.73673	101436.075
1449.15965	101733.575
1452.58027	101858.375
1455.9986	101840.575
1459.41463	102167.275
1462.82837	103044.475
1466.23982	104292.775
1469.64898	105382.975
1473.05586	106212.875
1476.46045	106907.875
1479.86276	107408.175
1483.26279	107767.075
1486.66054	108268.075
1490.05602	109120.175
1493.44922	110607.775
1496.84016	112964.875
1500.22882	116602.775
1503.61521	120850.675
1506.99934	124615.475
1510.38121	126707.975
1513.76081	125922.575
1517.13816	122643.175
1520.51324	118419.975
1523.88607	114695.275
1527.25665	112206.475
1530.62498	110870.975
1533.99105	109851.075
1537.35488	109203.075
1540.71647	108457.675
1544.07581	107958.075
1547.4329	107537.075
1550.78776	106885.275
1554.14038	106443.775
1557.49077	106281.775
1560.83892	106419.675
1564.18484	106993.475
1567.52853	107671.075
1570.86999	108268.475
1574.20922	108815.275
1577.54624	108714.675
1580.88103	107590.675
1584.2136	106194.475
1587.54395	105489.675
1590.87208	105993.775
1594.19801	107669.175
1597.52172	109947.075
1600.84321	110984.275
1604.16251	110455.575
1607.47959	108989.575
1610.79447	106648.775
1614.10715	103619.275
1617.41763	100726.775
1620.7259	98269.675
1624.03199	96720.575
1627.33587	96164.775
1630.63757	96563.275
1633.93707	97994.075
1637.23439	100470.475
1640.52951	104320.175
1643.82246	109242.775
1647.11321	113732.275
1650.40179	115640.775
1653.68819	113336.175
1656.97241	107667.975
1660.25446	101705.975
1663.53433	97020.875
1666.81203	93739.475
1670.08756	91749.375
1673.36092	90429.175
1676.63211	89485.575
1679.90115	88764.875
1683.16801	88117.575
1686.43272	87618.075
1689.69527	87219.175
1692.95567	86931.475
1696.2139	86714.075
1699.46999	86576.275
1702.72392	86572.375
1705.97571	86570.175
1709.22535	86466.275
1712.47284	86613.775
1715.71819	86676.775
1718.96139	86662.575
1722.20246	86406.075
1725.44139	86069.575
1728.67818	85906.075
1731.91284	85663.075
1735.14537	85390.575
1738.37576	85238.275
1741.60403	85153.575
1744.83017	84908.575
1748.05418	84825.075
1751.27607	84757.875
1754.49584	84589.875
1757.71349	84505.575
1760.92903	84416.875
1764.14244	84442.675
1767.35375	84289.375
1770.56294	84055.575
1773.77002	84123.375
1776.97499	84143.275
1780.17785	84023.275
1783.37861	83804.975
1786.57727	83745.675
1789.77382	83592.075
1792.96828	83451.675
1796.16064	83404.775
1799.3509	83440.975
1802.53907	83186.175
1805.72514	83109.275
1808.90913	82954.675
1812.09102	82875.875
1815.27083	82672.075
1818.44856	82506.275
1821.6242	82504.775
1824.79776	82446.775
1827.96924	82262.575
1831.13864	82007.775
1834.30597	81986.075
1837.47122	81917.575
1840.6344	81838.775
1843.7955	82038.175
1846.95454	81986.775
1850.11151	81752.275
1853.26642	81610.475
1856.41926	81596.275
1859.57004	81633.575
1862.71876	81670.275
1865.86542	81612.975
1869.01003	81611.275
1872.15258	81553.575
1875.29308	81380.875
1878.43152	81164.375
1881.56792	81041.875
1884.70227	80908.575
1887.83457	80807.275
1890.96482	80733.975
1894.09304	80754.775
1897.21921	80630.975
1900.34335	80594.475
1903.46544	80438.575
1906.58551	80341.475
1909.70353	80179.675
1912.81953	80059.275
1915.93349	79862.375
1919.04543	79756.875
1922.15534	79703.975
1925.26322	79512.375
1928.36908	79441.575
1931.47292	79289.375
1934.57473	79052.475
1937.67453	78872.375
1940.77232	78671.975
1943.86808	78481.775
1946.96184	78234.175
1950.05358	78043.575
1953.14331	77809.575
1956.23103	77649.775
1959.31675	77367.075
1962.40046	77232.975
1965.48217	76983.975
1968.56188	76759.975
1971.63959	76600.675
1974.7153	76377.675
1977.78901	76193.675
1980.86073	75879.575
1983.93046	75709.675
1986.99819	75384.875
1990.06394	75208.775
1993.1277	75045.775
1996.18947	74802.775
1999.24925	74678.175
2002.30706	74550.975
2005.36288	74451.375
2008.41672	74254.275
2011.46859	74042.375
2014.51848	73786.675
2017.56639	73668.675
2020.61233	73641.875
2023.6563	73324.175
2026.6983	73111.975
2029.73833	72729.075
2032.7764	72498.175
2035.8125	72377.875
2038.84664	72209.175
2041.87881	72124.275
2044.90903	71960.475
2047.93729	71757.975
2050.96359	71774.475
2053.98794	71681.475
2057.01034	71636.575
2060.03078	71540.575
2063.04927	71397.675
2066.06582	71311.575
2069.08042	71371.675
2072.09307	71367.875
2075.10378	71229.975
2078.11255	71190.475
2081.11938	71201.575
2084.12426	71050.075
2087.12722	70951.575
2090.12824	70941.675
2093.12732	71008.975
2096.12447	71048.175
2099.11969	71087.075
2102.11299	71166.275
2105.10435	71197.975
2108.09379	71206.875
2111.08131	71247.775
2114.0669	71146.575
2117.05057	71171.275
2120.03233	71311.975
2123.01216	71347.575
2125.99008	71344.775
2128.96609	71521.275
2131.94018	71531.075
2134.91236	71603.175
2137.88263	71596.475
2140.851	71701.175
2143.81746	71804.475
2146.78201	71739.075
2149.74466	71807.875
2152.7054	71792.975
2155.66425	71765.975
2158.6212	71772.875
2161.57625	71714.775
2164.52941	71610.575
2167.48067	71604.975
2170.43004	71656.875
2173.37752	71644.975
2176.32311	71529.875
2179.26681	71408.575
2182.20863	71550.075
2185.14856	71565.975
2188.08661	71524.075
2191.02278	71603.575
2193.95707	71509.475
2196.88948	71459.175
2199.82001	71430.375
2202.74867	71357.575
2205.67545	71240.975
2208.60037	71091.175
2211.52341	70900.175
2214.44458	70701.875
2217.36388	70536.775
2220.28132	70475.575
2223.1969	70270.375
2226.11061	70129.875
2229.02246	69965.075
2231.93245	69970.475
2234.84058	69892.275
2237.74686	69698.275
2240.65128	69587.175
2243.55385	69516.575
2246.45456	69429.675
2249.35343	69351.775
2252.25044	69379.475
2255.14561	69235.575
2258.03893	69189.475
2260.93041	69005.675
2263.82004	68732.475
2266.70783	68662.175
2269.59378	68600.375
2272.4779	68511.975
2275.36017	68257.475
2278.24061	68051.875
2281.11922	67950.575
2283.996	67898.275
2286.87094	67782.575
2289.74405	67601.175
2292.61534	67503.975
2295.4848	67411.175
2298.35243	67375.775
2301.21824	67296.175
2304.08223	67219.675
2306.94439	67136.975
2309.80474	67095.575
2312.66327	67108.575
2315.51999	67008.575
2318.37489	67026.675
2321.22797	66908.975
2324.07925	66708.075
2326.92871	66569.475
2329.77637	66500.175
2332.62222	66336.875
2335.46626	66212.375
2338.3085	66186.175
2341.14893	66139.375
2343.98756	66032.875
2346.8244	65840.975
2349.65943	65963.175
2352.49267	65823.175
2355.32411	65909.675
2358.15376	65753.975
2360.98161	65701.175
2363.80768	65780.475
2366.63195	65675.775
2369.45444	65523.275
2372.27514	65504.575
2375.09405	65477.475
2377.91118	65404.975
2380.72652	65172.175
2383.54009	64981.775
2386.35187	64984.275
2389.16188	64892.975
2391.97011	64771.975
2394.77657	64666.275
2397.58125	64505.675
2400.38416	64354.875
2403.18529	64094.375
2405.98466	64164.275
2408.78226	64179.175
2411.57809	64046.975
2414.37216	63924.775
2417.16446	63917.375
2419.955	63702.175
2422.74378	63767.975
2425.5308	63688.175
2428.31606	63537.275
2431.09956	63598.175
2433.88131	63514.075
2436.6613	63440.875
2439.43954	63451.875
2442.21603	63451.875
2444.99077	63272.275
2447.76377	63246.775
2450.53501	63086.175
2453.30451	63100.175
2456.07226	62981.375
2458.83827	62857.775
2461.60254	62743.975
2464.36507	62745.375
2467.12586	62751.675
2469.88492	62624.675
2472.64224	62453.775
2475.39782	62320.275
2478.15167	62422.275
2480.90379	62434.275
2483.65417	62531.375
2486.40283	62454.575
2489.14976	62480.175
2491.89497	62407.375
2494.63845	62333.775
2497.3802	62123.575
2500.12024	62114.575
2502.85855	62009.275
2505.59514	61918.975
2508.33002	61814.875
2511.06318	61771.475
2513.79462	61779.375
2516.52435	61647.675
2519.25237	61622.275
2521.97867	61501.175
2524.70327	61508.275
2527.42616	61318.975
2530.14734	61271.875
2532.86681	61106.675
2535.58458	61008.375
2538.30065	60973.675
2541.01501	60992.275
2543.72768	60888.075
2546.43864	60854.975
2549.14791	60662.475
2551.85548	60710.175
2554.56136	60545.775
2557.26554	60407.675
2559.96803	60239.575
2562.66883	60092.875
2565.36794	59993.775
2568.06536	59842.475
2570.7611	59665.175
2573.45514	59584.175
2576.14751	59503.475
2578.83819	59297.675
2581.52719	59346.075
2584.21451	59162.775
2586.90015	59114.675
2589.58411	59030.375
2592.2664	58986.275
2594.94701	58758.175
2597.62594	58744.275
2600.30321	58617.575
2602.9788	58565.975
2605.65273	58342.675
2608.32498	58299.475
2610.99557	58222.675
2613.66449	58277.575
2616.33175	58100.575
2618.99734	57997.575
2621.66128	57864.775
2624.32355	57728.275
2626.98416	57733.275
2629.64311	57668.275
2632.30041	57583.475
2634.95605	57465.675
2637.61004	57415.275
2640.26238	57324.875
2642.91306	57287.775
2645.56209	57141.975
2648.20948	57112.775
2650.85521	57040.075
2653.4993	57054.875
2656.14175	57024.775
2658.78255	57062.875
2661.42171	57029.075
2664.05923	57149.075
2666.6951	57107.775
2669.32934	57150.775
2671.96194	57059.875
2674.59291	57013.275
2677.22224	56948.375
2679.84993	56913.475
2682.476	56813.775
2685.10043	56826.475
2687.72324	56670.875
2690.34441	56737.075
2692.96396	56723.875
2695.58188	56713.875
2698.19818	56576.675
2700.81285	56677.775
2703.4259	56633.875
2706.03733	56746.075
2708.64714	56687.375
2711.25533	56637.075
2713.86191	56622.375
2716.46687	56762.875
2719.07021	56668.075
2721.67194	56623.175
2724.27206	56581.375
2726.87057	56645.975
2729.46747	56510.375
2732.06276	56556.475
2734.65644	56501.375
2737.24852	56499.075
2739.83899	56445.975
2742.42786	56314.475
2745.01513	56135.375
2747.60079	56073.575
2750.18486	56070.775
2752.76733	56079.075
2755.3482	56026.675
2757.92747	56086.075
2760.50515	55939.975
2763.08123	55898.975
2765.65573	55600.875
2768.22863	55632.875
2770.79994	55494.175
2773.36967	55524.375
2775.9378	55412.475
2778.50435	55264.775
2781.06932	55220.075
2783.6327	55273.675
2786.1945	55075.675
2788.75471	55039.275
2791.31335	54738.675
2793.87041	54637.075
2796.42589	54434.475
2798.97979	54469.575
2801.53212	54301.975
2804.08288	54282.575
2806.63206	54126.475
2809.17967	54036.275
2811.72571	53952.275
2814.27018	53770.375
2816.81308	53491.075
2819.35442	53402.875
2821.89419	53210.675
2824.43239	53141.075
2826.96904	53036.275
2829.50412	53031.275
2832.03763	52992.275
2834.56959	53002.575
2837.1	52971.175
2839.62884	52934.975
2842.15613	52818.575
2844.68186	52662.775
2847.20604	52515.875
2849.72867	52523.475
2852.24974	52390.775
2854.76927	52287.175
2857.28724	52228.975
2859.80367	52162.375
2862.31855	52163.575
2864.83189	52229.075
2867.34368	52060.175
2869.85393	51998.175
2872.36264	51862.275
2874.8698	51733.375
2877.37543	51746.575
2879.87952	51664.675
2882.38207	51559.675
2884.88308	51547.675
2887.38256	51517.875
2889.88051	51489.975
2892.37692	51491.875
2894.8718	51501.675
2897.36515	51590.675
2899.85698	51545.675
2902.34727	51567.675
2904.83604	51545.575
2907.32328	51678.675
2909.809	51749.275
2912.29319	51806.475
2914.77587	51727.275
2917.25702	51668.275
2919.73665	51567.875
2922.21476	51630.075
2924.69136	51518.275
2927.16644	51491.475
2929.64	51389.775
2932.11205	51321.375
2934.58258	51104.775
2937.05161	51160.575
2939.51912	51130.675
2941.98513	51057.075
2944.44962	51044.275
2946.91261	50925.975
2949.37409	50984.275
2951.83407	50924.675
2954.29254	50964.775
2956.74951	50911.675
2959.20498	50905.775
2961.65895	50919.775
2964.11142	50947.975
2966.56239	50891.075
2969.01186	50904.775
2971.45984	50817.275
2973.90632	50745.875
2976.35131	50675.675
2978.7948	50575.775
2981.23681	50415.775
2983.67732	50395.875
2986.11635	50321.575
2988.55388	50232.275
2990.98993	50150.475
2993.4245	49951.175
2995.85758	49900.475
2998.28917	49761.475
3000.71928	49744.075
3003.14791	49594.875
3005.57506	49517.675
3008.00073	49291.275
3010.42493	49212.075
3012.84764	49087.175
3015.26888	49074.775
3017.68865	48999.075
3020.10694	48935.775
3022.52376	48814.175
3024.9391	48798.575
3027.35298	48693.175
3029.76539	48717.775
3032.17632	48683.675
3034.5858	48556.875
3036.9938	48542.575
3039.40034	48441.575
3041.80542	48454.875
3044.20903	48243.075
3046.61118	48217.075
3049.01187	48070.375
3051.4111	48076.775
3053.80888	47969.775
3056.20519	47857.175
3058.60005	47669.375
3060.99345	47517.875
3063.3854	47490.775
3065.7759	47375.275
3068.16494	47149.575
3070.55254	46988.775
3072.93868	46982.075
3075.32338	46853.675
3077.70662	46805.775
3080.08842	46694.575
3082.46878	46655.275
3084.84769	46605.775
3087.22515	46620.675
3089.60118	46597.975
3091.97576	46583.875
3094.3489	46516.075
3096.72061	46455.375
3099.09087	46457.175
3101.4597	46401.575
3103.82709	46350.275
3106.19305	46247.975
3108.55757	46276.975
3110.92066	46177.275
3113.28232	46134.275
3115.64255	46061.975
3118.00134	46010.975
3120.35871	45901.575
3122.71466	45717.875
3125.06917	45598.075
3127.42226	45444.175
3129.77393	45426.775
3132.12417	45319.875
3134.47299	45354.875
3136.82039	45282.575
3139.16636	45239.575
3141.51092	45100.875
3143.85406	45129.675
3146.19579	45070.675
3148.53609	45036.375
3150.87499	45166.175
3153.21246	45207.875
3155.54853	45171.775
3157.88318	45087.475
3160.21642	45164.275
3162.54826	45185.075
3164.87868	45095.875
3167.2077	45087.275
3169.5353	45084.875
3171.86151	44949.475
3174.18631	44874.575
3176.5097	44819.075
3178.83169	44787.375
3181.15228	44817.275
3183.47147	44684.875
3185.78926	44534.175
3188.10565	44456.375
3190.42065	44419.975
3192.73424	44397.675
3195.04645	44352.875
3197.35725	44310.575
3199.66667	44240.375
3201.97469	44286.275
3204.28132	44125.775
3206.58656	44085.475
3208.8904	44098.775
3211.19287	44098.675
3213.49394	44090.275
3215.79363	44133.375
3218.09193	44209.575
3220.38884	44143.475
3222.68438	44111.075
3224.97853	44026.175
3227.2713	43962.175
3229.56269	43882.475
3231.8527	43856.575
3234.14133	43832.875
3236.42858	43740.575
3238.71446	43610.475
3240.99896	43522.975
3243.28209	43466.475
3245.56384	43346.875
3247.84423	43271.675
3250.12324	43243.275
3252.40088	43157.375
3254.67715	43194.475
3256.95205	43202.975
3259.22558	43254.475
3261.49775	43138.275
3263.76855	43066.875
3266.03799	42856.275
3268.30606	42830.875
3270.57277	42745.475
3272.83812	42766.675
3275.10211	42627.975
3277.36474	42549.275
3279.62601	42549.875
3281.88593	42470.075
3284.14448	42622.975
3286.40168	42524.975
3288.65753	42374.075
3290.91202	42315.675
3293.16516	42230.975
3295.41695	42191.375
3297.66738	41965.175
3299.91647	41729.575
3302.16421	41512.875
3304.4106	41402.275
3306.65564	41152.075
3308.89933	40913.575
3311.14169	40602.075
3313.38269	40340.275
3315.62236	40173.475
3317.86068	39890.275
3320.09766	39591.275
3322.3333	39369.475
3324.5676	39297.275
3326.80056	38738.475
3329.03219	38534.175
3331.26248	10.075
3333.49143	0.375
3335.71905	-1.625
