Data from AgNPs_UA_100uM_CRN_0uM_R6G_10uM_Q_RamanShift__18__13-33-25-331.txt Node

Date: Tue Jul 26 13:33:25 BST 2022
User: TCL
Spectrometer: QEP01345
Trigger mode: 4
Integration Time (sec): 7.000000E0
Scans to average: 10
Electric dark correction enabled: true
Nonlinearity correction enabled: false
Boxcar width: 0
XAxis mode: Raman Shifts
Number of Pixels in Spectrum: 1044
>>>>>Begin Spectral Data<<<<<
46.04893	-0.2375
50.45542	1.2625
54.85868	-1.3375
59.25871	-0.9375
63.6555	55.7625
68.04907	64.1625
72.43941	67.6625
76.82654	71.9625
81.21044	76.1625
85.59113	75.8625
89.96862	83.0625
94.34289	86.1625
98.71396	89.3625
103.08183	89.9625
107.4465	88.1625
111.80798	89.2625
116.16626	93.4625
120.52136	95.7625
124.87327	97.9625
129.222	105.8625
133.56755	107.0625
137.90993	109.0625
142.24913	110.7625
146.58517	116.9625
150.91804	125.3625
155.24774	149.3625
159.57429	181.5625
163.89768	220.5625
168.21792	283.6625
172.53501	363.4625
176.84895	498.1625
181.15975	707.8625
185.46741	974.6625
189.77193	1331.7625
194.07331	1774.9625
198.37157	2284.7625
202.6667	2807.2625
206.9587	3335.9625
211.24758	3842.2625
215.53334	4360.5625
219.81599	4903.0625
224.09553	5497.0625
228.37195	6196.2625
232.64527	6918.7625
236.91549	7693.0625
241.18261	8485.2625
245.44663	9184.4625
249.70755	9824.4625
253.96539	10358.2625
258.22014	10824.3625
262.4718	11177.0625
266.72039	11457.0625
270.96589	11521.7625
275.20832	11530.4625
279.44768	11380.3625
283.68397	11223.8625
287.91719	11049.3625
292.14735	10958.4625
296.37445	10960.0625
300.59849	11039.4625
304.81948	11149.3625
309.03742	11194.0625
313.25231	11149.4625
317.46415	10960.9625
321.67296	10767.0625
325.87872	10587.2625
330.08145	10514.0625
334.28114	10615.3625
338.47781	10702.5625
342.67145	10915.7625
346.86207	11119.8625
351.04966	11359.5625
355.23424	11681.5625
359.4158	11968.8625
363.59435	12201.5625
367.76989	12328.5625
371.94243	12450.8625
376.11196	12559.5625
380.27849	12641.5625
384.44203	12729.7625
388.60257	12786.4625
392.76012	12850.7625
396.91468	12950.0625
401.06626	13077.5625
405.21485	13234.5625
409.36047	13196.4625
413.50311	13011.6625
417.64277	12843.2625
421.77947	12711.6625
425.9132	12729.0625
430.04396	12758.8625
434.17176	12844.2625
438.2966	12998.7625
442.41849	13175.7625
446.53742	13405.8625
450.6534	13664.5625
454.76644	13836.7625
458.87653	13933.8625
462.98368	13971.1625
467.08789	13897.4625
471.18916	13792.3625
475.2875	13631.4625
479.38291	13511.5625
483.4754	13449.9625
487.56496	13353.4625
491.6516	13353.5625
495.73531	13340.9625
499.81612	13348.8625
503.89401	13436.0625
507.96899	13503.2625
512.04106	13551.3625
516.11023	13601.1625
520.1765	13651.0625
524.23987	13690.4625
528.30034	13690.8625
532.35792	13698.4625
536.41261	13600.5625
540.46441	13559.6625
544.51333	13540.0625
548.55936	13562.3625
552.60252	13644.7625
556.64279	13780.2625
560.6802	13897.6625
564.71473	13984.2625
568.7464	14060.9625
572.7752	14113.2625
576.80114	14065.9625
580.82422	14050.1625
584.84444	14121.4625
588.86181	14266.6625
592.87633	14358.9625
596.888	14499.5625
600.89682	14763.1625
604.9028	15540.4625
608.90594	17191.5625
612.90624	18755.6625
616.90371	17892.9625
620.89834	15524.5625
624.89015	14588.9625
628.87913	14529.6625
632.86528	14620.6625
636.84862	14674.9625
640.82913	14504.8625
644.80683	14260.2625
648.78172	14039.7625
652.75379	14058.8625
656.72306	14276.9625
660.68952	14498.1625
664.65319	14496.1625
668.61405	14332.0625
672.57211	14376.3625
676.52738	14441.4625
680.47986	14384.0625
684.42955	14321.5625
688.37646	14299.2625
692.32058	14370.7625
696.26192	14488.2625
700.20048	14586.3625
704.13626	14622.1625
708.06928	14564.2625
711.99952	14438.8625
715.927	14429.6625
719.85171	14435.2625
723.77365	14451.4625
727.69284	14425.7625
731.60928	14396.2625
735.52295	14368.2625
739.43388	14396.5625
743.34206	14427.2625
747.24749	14478.2625
751.15017	14462.5625
755.05012	14551.7625
758.94733	14790.2625
762.8418	15305.3625
766.73354	16172.8625
770.62254	17110.0625
774.50882	17606.6625
778.39237	17304.4625
782.27321	16453.3625
786.15132	15576.6625
790.02671	14994.6625
793.89938	14738.4625
797.76935	14608.9625
801.6366	14555.4625
805.50115	14534.7625
809.36299	14522.2625
813.22213	14436.4625
817.07857	14397.8625
820.93231	14404.2625
824.78336	14441.0625
828.63172	14436.7625
832.47738	14454.8625
836.32036	14447.0625
840.16066	14497.1625
843.99827	14495.3625
847.8332	14502.5625
851.66546	14473.1625
855.49504	14517.7625
859.32195	14538.5625
863.1462	14498.0625
866.96777	14515.5625
870.78668	14514.3625
874.60293	14589.2625
878.41652	14617.6625
882.22745	14651.8625
886.03573	14702.0625
889.84136	14738.9625
893.64433	14666.5625
897.44466	14637.1625
901.24235	14585.5625
905.0374	14549.3625
908.8298	14500.4625
912.61957	14480.9625
916.40671	14516.9625
920.19121	14563.0625
923.97308	14606.1625
927.75233	14705.1625
931.52895	14735.0625
935.30295	14710.3625
939.07433	14567.1625
942.84309	14460.6625
946.60924	14466.7625
950.37278	14423.2625
954.13371	14382.3625
957.89203	14361.3625
961.64774	14327.5625
965.40086	14318.9625
969.15137	14274.3625
972.89929	14269.8625
976.64461	14246.8625
980.38733	14304.9625
984.12747	14337.5625
987.86502	14462.7625
991.59999	14526.4625
995.33237	14764.9625
999.06217	14941.8625
1002.78939	15171.7625
1006.51404	15335.9625
1010.23611	15447.7625
1013.95561	15548.9625
1017.67255	15621.2625
1021.38692	15559.6625
1025.09872	15483.4625
1028.80796	15562.4625
1032.51465	15731.3625
1036.21877	15892.4625
1039.92035	15862.9625
1043.61937	15774.0625
1047.31584	15573.6625
1051.00976	15434.2625
1054.70114	15338.2625
1058.38998	15363.6625
1062.07627	15388.6625
1065.76003	15415.3625
1069.44126	15500.5625
1073.11995	15660.2625
1076.79611	15810.8625
1080.46974	15962.5625
1084.14085	16078.7625
1087.80943	16159.0625
1091.47549	16201.3625
1095.13903	16140.5625
1098.80005	16048.4625
1102.45857	15948.6625
1106.11456	15919.1625
1109.76805	15932.6625
1113.41903	15974.2625
1117.06751	16105.2625
1120.71348	16278.1625
1124.35696	16457.7625
1127.99793	16552.7625
1131.63641	16602.2625
1135.2724	16387.3625
1138.90589	16218.0625
1142.5369	16074.0625
1146.16542	15923.7625
1149.79145	15804.6625
1153.415	15744.4625
1157.03607	15754.0625
1160.65467	15843.2625
1164.27079	16089.2625
1167.88443	16461.2625
1171.49561	17000.8625
1175.10432	17808.4625
1178.71056	18859.4625
1182.31434	19838.5625
1185.91565	20318.9625
1189.51451	20330.9625
1193.11091	19898.0625
1196.70485	19322.7625
1200.29634	18758.5625
1203.88538	18304.0625
1207.47197	17810.0625
1211.05612	17461.3625
1214.63782	17162.3625
1218.21708	17024.3625
1221.79391	17037.8625
1225.36829	17053.0625
1228.94024	17017.1625
1232.50976	16854.5625
1236.07685	16746.3625
1239.6415	16748.0625
1243.20374	16800.0625
1246.76355	16866.2625
1250.32093	17023.8625
1253.8759	17221.2625
1257.42845	17503.2625
1260.97859	17822.4625
1264.52631	18107.9625
1268.07163	18438.5625
1271.61453	18750.9625
1275.15503	19053.1625
1278.69312	19269.4625
1282.22882	19384.9625
1285.76211	19495.9625
1289.29301	19633.0625
1292.82151	19864.0625
1296.34761	20180.5625
1299.87133	20808.7625
1303.39266	21664.0625
1306.9116	22879.7625
1310.42815	24118.5625
1313.94233	24771.0625
1317.45412	24478.5625
1320.96354	23719.0625
1324.47058	22799.9625
1327.97525	21965.6625
1331.47754	21422.1625
1334.97747	21158.5625
1338.47502	21233.1625
1341.97022	21546.5625
1345.46305	21985.4625
1348.95352	22562.7625
1352.44163	23195.9625
1355.92738	24084.6625
1359.41078	25335.9625
1362.89183	26342.9625
1366.37053	25623.1625
1369.84688	23394.2625
1373.32088	21312.1625
1376.79254	20017.0625
1380.26186	19276.7625
1383.72883	18882.9625
1387.19347	18565.0625
1390.65578	18203.0625
1394.11575	17877.0625
1397.57339	17721.4625
1401.0287	17681.9625
1404.48168	17676.9625
1407.93234	17765.9625
1411.38068	17858.5625
1414.82669	17828.1625
1418.27039	17699.1625
1421.71177	17601.9625
1425.15083	17450.9625
1428.58758	17447.9625
1432.02203	17542.4625
1435.45416	17691.3625
1438.88399	17783.2625
1442.31151	17770.0625
1445.73673	17802.2625
1449.15965	17786.3625
1452.58027	17808.7625
1455.9986	17764.6625
1459.41463	17866.3625
1462.82837	18057.3625
1466.23982	18288.7625
1469.64898	18532.6625
1473.05586	18723.8625
1476.46045	18812.2625
1479.86276	18869.8625
1483.26279	18917.7625
1486.66054	19020.3625
1490.05602	19184.3625
1493.44922	19458.1625
1496.84016	19960.7625
1500.22882	20758.4625
1503.61521	21810.5625
1506.99934	22869.7625
1510.38121	23564.9625
1513.76081	23452.8625
1517.13816	22570.0625
1520.51324	21263.6625
1523.88607	20113.0625
1527.25665	19408.9625
1530.62498	19015.9625
1533.99105	18780.9625
1537.35488	18657.4625
1540.71647	18622.3625
1544.07581	18555.0625
1547.4329	18500.4625
1550.78776	18429.1625
1554.14038	18422.8625
1557.49077	18438.1625
1560.83892	18465.8625
1564.18484	18606.3625
1567.52853	18787.1625
1570.86999	18970.8625
1574.20922	19051.2625
1577.54624	19008.4625
1580.88103	18688.4625
1584.2136	18318.8625
1587.54395	18240.0625
1590.87208	18571.3625
1594.19801	19199.1625
1597.52172	20014.4625
1600.84321	20446.6625
1604.16251	20139.0625
1607.47959	19472.7625
1610.79447	18607.5625
1614.10715	17752.9625
1617.41763	17113.4625
1620.7259	16618.0625
1624.03199	16313.3625
1627.33587	16316.3625
1630.63757	16464.0625
1633.93707	16873.6625
1637.23439	17591.9625
1640.52951	18528.9625
1643.82246	19660.8625
1647.11321	20688.8625
1650.40179	21008.2625
1653.68819	20251.7625
1656.97241	18783.6625
1660.25446	17281.8625
1663.53433	16227.9625
1666.81203	15580.2625
1670.08756	15166.4625
1673.36092	14901.3625
1676.63211	14706.5625
1679.90115	14543.6625
1683.16801	14458.6625
1686.43272	14346.1625
1689.69527	14272.5625
1692.95567	14188.9625
1696.2139	14151.9625
1699.46999	14148.0625
1702.72392	14081.2625
1705.97571	14080.8625
1709.22535	14085.9625
1712.47284	14048.1625
1715.71819	14019.4625
1718.96139	14004.9625
1722.20246	13990.6625
1725.44139	13934.1625
1728.67818	13894.9625
1731.91284	13844.6625
1735.14537	13814.5625
1738.37576	13726.1625
1741.60403	13711.1625
1744.83017	13699.7625
1748.05418	13636.7625
1751.27607	13614.9625
1754.49584	13605.3625
1757.71349	13591.8625
1760.92903	13585.1625
1764.14244	13569.8625
1767.35375	13557.3625
1770.56294	13543.1625
1773.77002	13551.7625
1776.97499	13496.0625
1780.17785	13503.1625
1783.37861	13508.4625
1786.57727	13475.4625
1789.77382	13479.9625
1792.96828	13467.6625
1796.16064	13457.3625
1799.3509	13415.3625
1802.53907	13424.5625
1805.72514	13402.0625
1808.90913	13344.8625
1812.09102	13307.5625
1815.27083	13302.7625
1818.44856	13296.0625
1821.6242	13274.4625
1824.79776	13256.5625
1827.96924	13211.8625
1831.13864	13231.3625
1834.30597	13205.4625
1837.47122	13166.7625
1840.6344	13190.9625
1843.7955	13184.1625
1846.95454	13174.4625
1850.11151	13159.5625
1853.26642	13156.5625
1856.41926	13140.7625
1859.57004	13136.0625
1862.71876	13158.0625
1865.86542	13139.9625
1869.01003	13141.8625
1872.15258	13112.1625
1875.29308	13124.9625
1878.43152	13093.1625
1881.56792	13114.7625
1884.70227	13066.6625
1887.83457	13072.6625
1890.96482	13040.2625
1894.09304	13046.4625
1897.21921	13015.7625
1900.34335	12990.6625
1903.46544	13005.3625
1906.58551	12998.7625
1909.70353	12995.8625
1912.81953	12987.7625
1915.93349	12957.6625
1919.04543	12979.8625
1922.15534	12943.1625
1925.26322	12940.7625
1928.36908	12951.9625
1931.47292	12891.1625
1934.57473	12857.0625
1937.67453	12841.1625
1940.77232	12819.6625
1943.86808	12781.8625
1946.96184	12779.3625
1950.05358	12727.4625
1953.14331	12704.6625
1956.23103	12661.6625
1959.31675	12615.0625
1962.40046	12622.7625
1965.48217	12590.5625
1968.56188	12522.3625
1971.63959	12517.4625
1974.7153	12463.5625
1977.78901	12437.5625
1980.86073	12395.2625
1983.93046	12377.3625
1986.99819	12363.4625
1990.06394	12329.5625
1993.1277	12294.8625
1996.18947	12228.5625
1999.24925	12185.0625
2002.30706	12190.0625
2005.36288	12117.2625
2008.41672	12115.1625
2011.46859	12099.6625
2014.51848	12048.5625
2017.56639	12042.8625
2020.61233	12002.5625
2023.6563	12013.6625
2026.6983	11992.3625
2029.73833	11954.0625
2032.7764	11895.5625
2035.8125	11881.6625
2038.84664	11887.9625
2041.87881	11875.3625
2044.90903	11837.9625
2047.93729	11821.0625
2050.96359	11809.2625
2053.98794	11815.9625
2057.01034	11789.3625
2060.03078	11795.1625
2063.04927	11769.0625
2066.06582	11768.1625
2069.08042	11762.8625
2072.09307	11745.4625
2075.10378	11751.0625
2078.11255	11740.3625
2081.11938	11749.1625
2084.12426	11764.1625
2087.12722	11744.1625
2090.12824	11747.0625
2093.12732	11764.8625
2096.12447	11737.3625
2099.11969	11746.6625
2102.11299	11730.5625
2105.10435	11753.7625
2108.09379	11772.0625
2111.08131	11767.0625
2114.0669	11769.0625
2117.05057	11789.6625
2120.03233	11814.7625
2123.01216	11809.9625
2125.99008	11862.9625
2128.96609	11853.8625
2131.94018	11841.3625
2134.91236	11872.4625
2137.88263	11889.4625
2140.851	11909.4625
2143.81746	11911.3625
2146.78201	11911.9625
2149.74466	11945.2625
2152.7054	11927.7625
2155.66425	11921.2625
2158.6212	11911.2625
2161.57625	11899.1625
2164.52941	11930.1625
2167.48067	11900.3625
2170.43004	11896.9625
2173.37752	11885.7625
2176.32311	11891.5625
2179.26681	11910.3625
2182.20863	11885.8625
2185.14856	11910.0625
2188.08661	11922.2625
2191.02278	11919.2625
2193.95707	11904.8625
2196.88948	11898.0625
2199.82001	11921.1625
2202.74867	11913.8625
2205.67545	11910.9625
2208.60037	11917.1625
2211.52341	11878.2625
2214.44458	11875.2625
2217.36388	11869.1625
2220.28132	11825.6625
2223.1969	11801.2625
2226.11061	11788.1625
2229.02246	11765.9625
2231.93245	11737.4625
2234.84058	11730.7625
2237.74686	11677.4625
2240.65128	11698.9625
2243.55385	11704.8625
2246.45456	11687.0625
2249.35343	11672.0625
2252.25044	11636.5625
2255.14561	11659.9625
2258.03893	11621.3625
2260.93041	11626.1625
2263.82004	11583.3625
2266.70783	11589.9625
2269.59378	11534.5625
2272.4779	11531.8625
2275.36017	11522.2625
2278.24061	11488.9625
2281.11922	11459.0625
2283.996	11475.1625
2286.87094	11448.1625
2289.74405	11431.1625
2292.61534	11417.3625
2295.4848	11392.6625
2298.35243	11440.1625
2301.21824	11416.4625
2304.08223	11432.1625
2306.94439	11433.1625
2309.80474	11438.7625
2312.66327	11416.7625
2315.51999	11423.3625
2318.37489	11403.0625
2321.22797	11398.1625
2324.07925	11377.2625
2326.92871	11354.6625
2329.77637	11360.8625
2332.62222	11358.8625
2335.46626	11306.4625
2338.3085	11321.3625
2341.14893	11293.1625
2343.98756	11324.2625
2346.8244	11306.4625
2349.65943	11323.2625
2352.49267	11291.7625
2355.32411	11286.4625
2358.15376	11288.9625
2360.98161	11278.1625
2363.80768	11272.3625
2366.63195	11255.7625
2369.45444	11263.0625
2372.27514	11236.8625
2375.09405	11229.2625
2377.91118	11201.3625
2380.72652	11196.0625
2383.54009	11137.4625
2386.35187	11160.6625
2389.16188	11139.4625
2391.97011	11103.3625
2394.77657	11092.2625
2397.58125	11070.0625
2400.38416	11072.3625
2403.18529	11059.6625
2405.98466	11073.0625
2408.78226	11051.3625
2411.57809	11025.9625
2414.37216	10999.5625
2417.16446	10978.7625
2419.955	10965.2625
2422.74378	10973.8625
2425.5308	10999.0625
2428.31606	10954.3625
2431.09956	10973.2625
2433.88131	10935.4625
2436.6613	10961.5625
2439.43954	10947.7625
2442.21603	10948.7625
2444.99077	10929.5625
2447.76377	10929.2625
2450.53501	10923.0625
2453.30451	10910.7625
2456.07226	10860.1625
2458.83827	10877.6625
2461.60254	10879.1625
2464.36507	10870.3625
2467.12586	10879.1625
2469.88492	10870.8625
2472.64224	10862.7625
2475.39782	10860.4625
2478.15167	10856.3625
2480.90379	10863.1625
2483.65417	10851.0625
2486.40283	10851.7625
2489.14976	10884.4625
2491.89497	10857.4625
2494.63845	10864.5625
2497.3802	10850.0625
2500.12024	10860.4625
2502.85855	10831.1625
2505.59514	10813.6625
2508.33002	10791.6625
2511.06318	10799.2625
2513.79462	10779.6625
2516.52435	10769.8625
2519.25237	10772.1625
2521.97867	10745.0625
2524.70327	10751.2625
2527.42616	10719.3625
2530.14734	10753.2625
2532.86681	10722.6625
2535.58458	10684.4625
2538.30065	10721.8625
2541.01501	10697.5625
2543.72768	10661.4625
2546.43864	10681.9625
2549.14791	10671.2625
2551.85548	10651.7625
2554.56136	10644.0625
2557.26554	10622.9625
2559.96803	10622.0625
2562.66883	10600.6625
2565.36794	10577.9625
2568.06536	10602.0625
2570.7611	10532.6625
2573.45514	10518.1625
2576.14751	10530.6625
2578.83819	10513.8625
2581.52719	10519.3625
2584.21451	10520.2625
2586.90015	10527.0625
2589.58411	10489.3625
2592.2664	10484.0625
2594.94701	10450.2625
2597.62594	10469.9625
2600.30321	10441.6625
2602.9788	10442.1625
2605.65273	10401.6625
2608.32498	10440.6625
2610.99557	10423.5625
2613.66449	10425.4625
2616.33175	10412.3625
2618.99734	10421.3625
2621.66128	10412.3625
2624.32355	10382.4625
2626.98416	10379.4625
2629.64311	10374.2625
2632.30041	10374.3625
2634.95605	10334.3625
2637.61004	10329.4625
2640.26238	10323.8625
2642.91306	10328.0625
2645.56209	10321.6625
2648.20948	10304.3625
2650.85521	10288.1625
2653.4993	10294.3625
2656.14175	10294.0625
2658.78255	10296.5625
2661.42171	10267.6625
2664.05923	10294.7625
2666.6951	10289.7625
2669.32934	10312.3625
2671.96194	10289.6625
2674.59291	10304.8625
2677.22224	10281.0625
2679.84993	10309.2625
2682.476	10287.2625
2685.10043	10290.3625
2687.72324	10292.3625
2690.34441	10304.2625
2692.96396	10283.4625
2695.58188	10274.0625
2698.19818	10277.0625
2700.81285	10259.7625
2703.4259	10237.4625
2706.03733	10275.0625
2708.64714	10282.2625
2711.25533	10269.0625
2713.86191	10275.7625
2716.46687	10286.7625
2719.07021	10291.5625
2721.67194	10319.7625
2724.27206	10306.0625
2726.87057	10300.2625
2729.46747	10314.4625
2732.06276	10305.4625
2734.65644	10311.0625
2737.24852	10291.3625
2739.83899	10308.5625
2742.42786	10322.1625
2745.01513	10255.6625
2747.60079	10240.7625
2750.18486	10262.4625
2752.76733	10249.4625
2755.3482	10216.4625
2757.92747	10242.6625
2760.50515	10229.1625
2763.08123	10211.6625
2765.65573	10190.0625
2768.22863	10201.3625
2770.79994	10191.9625
2773.36967	10160.5625
2775.9378	10159.3625
2778.50435	10149.0625
2781.06932	10125.4625
2783.6327	10143.9625
2786.1945	10143.5625
2788.75471	10135.4625
2791.31335	10126.5625
2793.87041	10116.5625
2796.42589	10091.2625
2798.97979	10072.4625
2801.53212	10065.3625
2804.08288	10029.2625
2806.63206	10008.6625
2809.17967	9994.5625
2811.72571	9980.9625
2814.27018	9956.8625
2816.81308	9943.5625
2819.35442	9906.1625
2821.89419	9887.9625
2824.43239	9888.1625
2826.96904	9878.4625
2829.50412	9856.6625
2832.03763	9848.5625
2834.56959	9846.1625
2837.1	9833.1625
2839.62884	9839.1625
2842.15613	9832.9625
2844.68186	9850.9625
2847.20604	9832.0625
2849.72867	9820.2625
2852.24974	9810.5625
2854.76927	9787.8625
2857.28724	9761.0625
2859.80367	9784.2625
2862.31855	9760.8625
2864.83189	9773.4625
2867.34368	9752.1625
2869.85393	9724.2625
2872.36264	9727.9625
2874.8698	9741.3625
2877.37543	9725.5625
2879.87952	9738.6625
2882.38207	9734.1625
2884.88308	9721.1625
2887.38256	9730.5625
2889.88051	9723.6625
2892.37692	9759.9625
2894.8718	9743.9625
2897.36515	9749.6625
2899.85698	9739.3625
2902.34727	9778.4625
2904.83604	9775.1625
2907.32328	9813.7625
2909.809	9811.4625
2912.29319	9792.1625
2914.77587	9780.7625
2917.25702	9789.9625
2919.73665	9774.3625
2922.21476	9789.7625
2924.69136	9776.9625
2927.16644	9797.3625
2929.64	9773.8625
2932.11205	9731.1625
2934.58258	9706.7625
2937.05161	9740.0625
2939.51912	9743.6625
2941.98513	9756.6625
2944.44962	9735.9625
2946.91261	9719.9625
2949.37409	9738.4625
2951.83407	9693.9625
2954.29254	9714.2625
2956.74951	9724.5625
2959.20498	9718.7625
2961.65895	9710.2625
2964.11142	9727.2625
2966.56239	9702.5625
2969.01186	9726.2625
2971.45984	9702.5625
2973.90632	9712.1625
2976.35131	9683.2625
2978.7948	9675.6625
2981.23681	9676.3625
2983.67732	9657.8625
2986.11635	9642.4625
2988.55388	9628.0625
2990.98993	9604.0625
2993.4245	9603.8625
2995.85758	9583.0625
2998.28917	9568.2625
3000.71928	9571.0625
3003.14791	9543.6625
3005.57506	9525.5625
3008.00073	9493.3625
3010.42493	9525.7625
3012.84764	9492.3625
3015.26888	9485.2625
3017.68865	9486.8625
3020.10694	9457.2625
3022.52376	9424.0625
3024.9391	9432.3625
3027.35298	9424.1625
3029.76539	9436.9625
3032.17632	9454.0625
3034.5858	9407.1625
3036.9938	9395.4625
3039.40034	9397.8625
3041.80542	9405.7625
3044.20903	9397.0625
3046.61118	9402.6625
3049.01187	9393.7625
3051.4111	9355.7625
3053.80888	9356.0625
3056.20519	9318.2625
3058.60005	9328.2625
3060.99345	9316.1625
3063.3854	9283.9625
3065.7759	9266.7625
3068.16494	9246.8625
3070.55254	9231.5625
3072.93868	9215.0625
3075.32338	9215.6625
3077.70662	9212.0625
3080.08842	9166.7625
3082.46878	9177.9625
3084.84769	9169.6625
3087.22515	9177.9625
3089.60118	9182.5625
3091.97576	9181.7625
3094.3489	9202.2625
3096.72061	9184.2625
3099.09087	9209.8625
3101.4597	9200.0625
3103.82709	9216.7625
3106.19305	9203.6625
3108.55757	9231.1625
3110.92066	9213.4625
3113.28232	9175.5625
3115.64255	9187.8625
3118.00134	9184.7625
3120.35871	9156.5625
3122.71466	9171.0625
3125.06917	9159.7625
3127.42226	9121.8625
3129.77393	9151.4625
3132.12417	9108.2625
3134.47299	9120.9625
3136.82039	9127.7625
3139.16636	9129.0625
3141.51092	9129.4625
3143.85406	9121.4625
3146.19579	9118.8625
3148.53609	9126.1625
3150.87499	9138.2625
3153.21246	9175.5625
3155.54853	9182.8625
3157.88318	9166.5625
3160.21642	9180.7625
3162.54826	9204.1625
3164.87868	9177.6625
3167.2077	9207.7625
3169.5353	9220.3625
3171.86151	9208.5625
3174.18631	9203.8625
3176.5097	9224.7625
3178.83169	9212.4625
3181.15228	9191.9625
3183.47147	9177.4625
3185.78926	9167.9625
3188.10565	9144.6625
3190.42065	9144.5625
3192.73424	9161.1625
3195.04645	9131.5625
3197.35725	9144.4625
3199.66667	9152.2625
3201.97469	9158.7625
3204.28132	9156.8625
3206.58656	9170.4625
3208.8904	9176.5625
3211.19287	9170.9625
3213.49394	9197.8625
3215.79363	9206.6625
3218.09193	9229.1625
3220.38884	9213.5625
3222.68438	9223.8625
3224.97853	9188.0625
3227.2713	9209.8625
3229.56269	9226.9625
3231.8527	9203.9625
3234.14133	9167.9625
3236.42858	9170.1625
3238.71446	9172.2625
3240.99896	9150.5625
3243.28209	9138.0625
3245.56384	9114.2625
3247.84423	9130.4625
3250.12324	9131.6625
3252.40088	9118.6625
3254.67715	9108.2625
3256.95205	9098.3625
3259.22558	9130.3625
3261.49775	9135.5625
3263.76855	9115.3625
3266.03799	9123.8625
3268.30606	9122.5625
3270.57277	9070.4625
3272.83812	9077.1625
3275.10211	9073.5625
3277.36474	9036.4625
3279.62601	9023.1625
3281.88593	9012.1625
3284.14448	9027.6625
3286.40168	9045.5625
3288.65753	9032.0625
3290.91202	9045.8625
3293.16516	9020.4625
3295.41695	8985.3625
3297.66738	8930.6625
3299.91647	8892.5625
3302.16421	8865.9625
3304.4106	8817.9625
3306.65564	8765.5625
3308.89933	8713.9625
3311.14169	8638.9625
3313.38269	8608.3625
3315.62236	8568.1625
3317.86068	8520.6625
3320.09766	8451.5625
3322.3333	8398.9625
3324.5676	8345.2625
3326.80056	8232.0625
3329.03219	8187.3625
3331.26248	1.7625
3333.49143	0.2625
3335.71905	-0.7375
