Data from AgNPs_UA_100uM_CRN_0uM_R6G_10uM_Q_RamanShift__26__13-42-45-342.txt Node

Date: Tue Jul 26 13:42:45 BST 2022
User: TCL
Spectrometer: QEP01345
Trigger mode: 4
Integration Time (sec): 7.000000E0
Scans to average: 10
Electric dark correction enabled: true
Nonlinearity correction enabled: false
Boxcar width: 0
XAxis mode: Raman Shifts
Number of Pixels in Spectrum: 1044
>>>>>Begin Spectral Data<<<<<
46.04893	-0.725
50.45542	0.375
54.85868	-0.625
59.25871	-0.425
63.6555	55.875
68.04907	60.475
72.43941	61.275
76.82654	64.975
81.21044	69.675
85.59113	72.675
89.96862	79.875
94.34289	78.575
98.71396	81.475
103.08183	82.375
107.4465	81.675
111.80798	84.275
116.16626	85.675
120.52136	83.975
124.87327	90.075
129.222	93.075
133.56755	95.975
137.90993	95.075
142.24913	98.375
146.58517	103.975
150.91804	110.975
155.24774	128.675
159.57429	146.375
163.89768	178.075
168.21792	224.875
172.53501	297.075
176.84895	400.775
181.15975	551.375
185.46741	756.975
189.77193	1042.675
194.07331	1388.175
198.37157	1765.875
202.6667	2178.975
206.9587	2584.775
211.24758	3010.075
215.53334	3440.075
219.81599	3901.775
224.09553	4424.975
228.37195	5011.475
232.64527	5652.575
236.91549	6295.575
241.18261	6852.375
245.44663	7336.775
249.70755	7741.275
253.96539	8079.175
258.22014	8393.375
262.4718	8645.475
266.72039	8829.175
270.96589	8883.375
275.20832	8836.075
279.44768	8662.475
283.68397	8505.575
287.91719	8404.775
292.14735	8383.275
296.37445	8507.975
300.59849	8776.575
304.81948	9064.975
309.03742	9256.175
313.25231	9224.675
317.46415	8944.575
321.67296	8481.575
325.87872	8103.775
330.08145	7944.275
334.28114	8001.075
338.47781	8137.375
342.67145	8316.275
346.86207	8616.675
351.04966	8996.075
355.23424	9459.575
359.4158	9793.575
363.59435	10041.675
367.76989	10147.375
371.94243	10162.275
376.11196	10177.375
380.27849	10200.675
384.44203	10137.775
388.60257	10082.275
392.76012	10090.875
396.91468	10168.175
401.06626	10326.075
405.21485	10448.775
409.36047	10308.475
413.50311	9956.075
417.64277	9630.275
421.77947	9419.075
425.9132	9344.175
430.04396	9358.175
434.17176	9428.675
438.2966	9573.775
442.41849	9770.475
446.53742	9986.875
450.6534	10195.875
454.76644	10319.475
458.87653	10378.075
462.98368	10336.575
467.08789	10228.775
471.18916	10104.275
475.2875	9903.375
479.38291	9780.175
483.4754	9678.175
487.56496	9629.075
491.6516	9605.175
495.73531	9574.675
499.81612	9572.975
503.89401	9661.075
507.96899	9738.375
512.04106	9859.075
516.11023	9989.675
520.1765	10103.475
524.23987	10127.375
528.30034	10080.275
532.35792	9995.075
536.41261	9928.075
540.46441	9818.475
544.51333	9755.275
548.55936	9791.075
552.60252	9894.975
556.64279	10062.575
560.6802	10119.875
564.71473	10251.875
568.7464	10485.375
572.7752	10544.675
576.80114	10298.275
580.82422	10110.275
584.84444	10063.375
588.86181	10128.775
592.87633	10242.275
596.888	10467.875
600.89682	10851.975
604.9028	11928.675
608.90594	14449.975
612.90624	17159.475
616.90371	16036.475
620.89834	12465.175
624.89015	11001.975
628.87913	10821.075
632.86528	10918.375
636.84862	10975.275
640.82913	10792.275
644.80683	10414.675
648.78172	10149.875
652.75379	10158.975
656.72306	10415.075
660.68952	10723.775
664.65319	10579.275
668.61405	10265.975
672.57211	10153.675
676.52738	10156.375
680.47986	10130.675
684.42955	10076.475
688.37646	10061.575
692.32058	10116.975
696.26192	10203.075
700.20048	10287.075
704.13626	10325.875
708.06928	10243.675
711.99952	10184.275
715.927	10193.775
719.85171	10278.875
723.77365	10319.175
727.69284	10269.375
731.60928	10259.275
735.52295	10258.475
739.43388	10267.975
743.34206	10291.075
747.24749	10349.475
751.15017	10386.975
755.05012	10513.675
758.94733	10902.875
762.8418	11771.475
766.73354	13079.375
770.62254	14412.675
774.50882	14972.875
778.39237	14383.675
782.27321	12949.775
786.15132	11627.375
790.02671	10916.675
793.89938	10581.575
797.76935	10434.175
801.6366	10424.275
805.50115	10389.275
809.36299	10408.375
813.22213	10382.375
817.07857	10373.675
820.93231	10358.375
824.78336	10392.875
828.63172	10402.775
832.47738	10399.775
836.32036	10402.375
840.16066	10413.175
843.99827	10428.575
847.8332	10419.275
851.66546	10369.875
855.49504	10380.175
859.32195	10386.075
863.1462	10351.975
866.96777	10320.875
870.78668	10322.275
874.60293	10367.875
878.41652	10430.575
882.22745	10505.875
886.03573	10583.675
889.84136	10583.875
893.64433	10527.775
897.44466	10488.275
901.24235	10442.075
905.0374	10418.275
908.8298	10365.775
912.61957	10334.075
916.40671	10339.475
920.19121	10407.475
923.97308	10502.975
927.75233	10631.475
931.52895	10729.475
935.30295	10648.775
939.07433	10486.475
942.84309	10347.975
946.60924	10278.075
950.37278	10238.575
954.13371	10137.075
957.89203	10113.875
961.64774	10105.475
965.40086	10066.775
969.15137	10044.375
972.89929	10007.075
976.64461	10012.775
980.38733	10039.675
984.12747	10073.075
987.86502	10156.575
991.59999	10278.875
995.33237	10475.075
999.06217	10706.075
1002.78939	10997.975
1006.51404	11203.075
1010.23611	11289.775
1013.95561	11394.275
1017.67255	11424.875
1021.38692	11367.875
1025.09872	11396.375
1028.80796	11522.075
1032.51465	11795.175
1036.21877	11991.175
1039.92035	11969.975
1043.61937	11803.275
1047.31584	11548.475
1051.00976	11280.575
1054.70114	11108.175
1058.38998	11048.775
1062.07627	11066.475
1065.76003	11071.875
1069.44126	11088.975
1073.11995	11149.675
1076.79611	11239.175
1080.46974	11384.375
1084.14085	11573.475
1087.80943	11750.875
1091.47549	11771.275
1095.13903	11614.075
1098.80005	11407.075
1102.45857	11239.375
1106.11456	11234.875
1109.76805	11375.675
1113.41903	11605.475
1117.06751	11920.975
1120.71348	12277.575
1124.35696	12657.075
1127.99793	12893.375
1131.63641	12780.675
1135.2724	12407.375
1138.90589	12040.275
1142.5369	11773.675
1146.16542	11541.675
1149.79145	11423.075
1153.415	11336.775
1157.03607	11375.275
1160.65467	11471.775
1164.27079	11742.575
1167.88443	12163.675
1171.49561	12823.275
1175.10432	13812.475
1178.71056	15221.275
1182.31434	16439.775
1185.91565	16873.275
1189.51451	16542.975
1193.11091	15702.275
1196.70485	14787.275
1200.29634	14151.175
1203.88538	13675.175
1207.47197	13162.175
1211.05612	12704.575
1214.63782	12371.375
1218.21708	12328.675
1221.79391	12333.075
1225.36829	12377.975
1228.94024	12379.775
1232.50976	12256.675
1236.07685	12187.375
1239.6415	12197.675
1243.20374	12284.075
1246.76355	12388.175
1250.32093	12518.475
1253.8759	12712.475
1257.42845	13031.075
1260.97859	13312.575
1264.52631	13556.175
1268.07163	13842.475
1271.61453	14124.275
1275.15503	14399.375
1278.69312	14622.575
1282.22882	14847.975
1285.76211	15059.775
1289.29301	15368.275
1292.82151	15659.075
1296.34761	16123.675
1299.87133	16886.975
1303.39266	18161.475
1306.9116	19909.475
1310.42815	21619.575
1313.94233	22147.475
1317.45412	21232.375
1320.96354	19773.875
1324.47058	18366.775
1327.97525	17178.475
1331.47754	16505.275
1334.97747	16348.075
1338.47502	16517.575
1341.97022	17012.475
1345.46305	17648.875
1348.95352	18512.575
1352.44163	19596.975
1355.92738	21178.075
1359.41078	23657.375
1362.89183	25699.975
1366.37053	24501.575
1369.84688	20977.475
1373.32088	17937.275
1376.79254	16157.175
1380.26186	15151.775
1383.72883	14607.975
1387.19347	14192.375
1390.65578	13828.475
1394.11575	13526.875
1397.57339	13427.975
1401.0287	13402.575
1404.48168	13476.475
1407.93234	13612.775
1411.38068	13766.775
1414.82669	13932.975
1418.27039	13877.675
1421.71177	13752.275
1425.15083	13599.275
1428.58758	13538.675
1432.02203	13614.875
1435.45416	13712.375
1438.88399	13695.275
1442.31151	13650.275
1445.73673	13621.375
1449.15965	13652.975
1452.58027	13610.075
1455.9986	13497.875
1459.41463	13470.775
1462.82837	13552.275
1466.23982	13760.775
1469.64898	14018.675
1473.05586	14203.475
1476.46045	14336.575
1479.86276	14549.075
1483.26279	14768.775
1486.66054	15121.075
1490.05602	15488.775
1493.44922	16115.575
1496.84016	17003.475
1500.22882	18346.175
1503.61521	20281.375
1506.99934	22379.875
1510.38121	23723.075
1513.76081	23556.375
1517.13816	21719.275
1520.51324	19297.875
1523.88607	17294.675
1527.25665	16097.375
1530.62498	15420.875
1533.99105	15039.775
1537.35488	14821.275
1540.71647	14705.375
1544.07581	14642.275
1547.4329	14677.775
1550.78776	14720.675
1554.14038	14735.475
1557.49077	14818.775
1560.83892	14961.775
1564.18484	15119.075
1567.52853	15370.875
1570.86999	15611.375
1574.20922	15759.975
1577.54624	15617.675
1580.88103	15110.575
1584.2136	14531.675
1587.54395	14312.775
1590.87208	14583.775
1594.19801	15315.775
1597.52172	16237.475
1600.84321	16641.375
1604.16251	16265.575
1607.47959	15542.675
1610.79447	14660.775
1614.10715	13833.475
1617.41763	13173.275
1620.7259	12734.075
1624.03199	12534.975
1627.33587	12582.975
1630.63757	12820.375
1633.93707	13307.875
1637.23439	14010.275
1640.52951	15018.175
1643.82246	16302.575
1647.11321	17628.375
1650.40179	18271.075
1653.68819	17541.075
1656.97241	15692.475
1660.25446	13874.275
1663.53433	12617.875
1666.81203	11873.675
1670.08756	11432.175
1673.36092	11130.775
1676.63211	10951.175
1679.90115	10827.275
1683.16801	10724.375
1686.43272	10623.175
1689.69527	10565.375
1692.95567	10521.275
1696.2139	10453.975
1699.46999	10431.075
1702.72392	10411.675
1705.97571	10393.075
1709.22535	10402.275
1712.47284	10378.775
1715.71819	10346.075
1718.96139	10329.275
1722.20246	10300.575
1725.44139	10271.675
1728.67818	10209.875
1731.91284	10179.775
1735.14537	10142.875
1738.37576	10112.675
1741.60403	10088.775
1744.83017	10066.775
1748.05418	10023.775
1751.27607	10005.275
1754.49584	9984.475
1757.71349	9999.975
1760.92903	9993.275
1764.14244	9997.675
1767.35375	9987.875
1770.56294	9985.575
1773.77002	9958.675
1776.97499	9961.175
1780.17785	9932.775
1783.37861	9918.475
1786.57727	9894.175
1789.77382	9889.775
1792.96828	9943.375
1796.16064	9907.875
1799.3509	9900.475
1802.53907	9904.975
1805.72514	9853.075
1808.90913	9837.275
1812.09102	9812.475
1815.27083	9804.675
1818.44856	9790.475
1821.6242	9776.375
1824.79776	9778.175
1827.96924	9747.475
1831.13864	9735.775
1834.30597	9757.275
1837.47122	9711.375
1840.6344	9731.175
1843.7955	9715.775
1846.95454	9718.675
1850.11151	9727.275
1853.26642	9727.475
1856.41926	9704.875
1859.57004	9700.975
1862.71876	9695.375
1865.86542	9743.875
1869.01003	9721.475
1872.15258	9715.775
1875.29308	9715.475
1878.43152	9710.575
1881.56792	9708.475
1884.70227	9690.575
1887.83457	9692.175
1890.96482	9678.775
1894.09304	9679.875
1897.21921	9660.675
1900.34335	9656.275
1903.46544	9645.075
1906.58551	9671.275
1909.70353	9659.075
1912.81953	9651.875
1915.93349	9657.775
1919.04543	9624.775
1922.15534	9636.875
1925.26322	9637.275
1928.36908	9610.275
1931.47292	9587.375
1934.57473	9587.975
1937.67453	9570.575
1940.77232	9544.975
1943.86808	9510.175
1946.96184	9500.175
1950.05358	9473.775
1953.14331	9451.875
1956.23103	9424.675
1959.31675	9412.875
1962.40046	9377.175
1965.48217	9378.575
1968.56188	9351.275
1971.63959	9326.975
1974.7153	9316.075
1977.78901	9281.375
1980.86073	9244.375
1983.93046	9231.275
1986.99819	9216.975
1990.06394	9182.275
1993.1277	9166.975
1996.18947	9111.875
1999.24925	9104.975
2002.30706	9080.675
2005.36288	9063.075
2008.41672	9019.775
2011.46859	9000.775
2014.51848	8972.875
2017.56639	8954.375
2020.61233	8954.875
2023.6563	8947.775
2026.6983	8935.275
2029.73833	8915.375
2032.7764	8878.575
2035.8125	8880.775
2038.84664	8850.275
2041.87881	8837.275
2044.90903	8873.775
2047.93729	8838.175
2050.96359	8856.575
2053.98794	8848.475
2057.01034	8810.475
2060.03078	8819.275
2063.04927	8786.275
2066.06582	8798.675
2069.08042	8800.775
2072.09307	8806.475
2075.10378	8791.475
2078.11255	8785.475
2081.11938	8796.075
2084.12426	8795.875
2087.12722	8792.075
2090.12824	8779.175
2093.12732	8799.875
2096.12447	8786.275
2099.11969	8764.275
2102.11299	8770.675
2105.10435	8788.875
2108.09379	8797.375
2111.08131	8788.775
2114.0669	8803.375
2117.05057	8821.175
2120.03233	8844.075
2123.01216	8832.375
2125.99008	8873.875
2128.96609	8856.675
2131.94018	8886.375
2134.91236	8892.575
2137.88263	8904.975
2140.851	8911.275
2143.81746	8888.275
2146.78201	8915.575
2149.74466	8900.575
2152.7054	8953.875
2155.66425	8931.175
2158.6212	8911.275
2161.57625	8913.375
2164.52941	8915.575
2167.48067	8913.475
2170.43004	8903.475
2173.37752	8893.975
2176.32311	8940.075
2179.26681	8921.975
2182.20863	8939.775
2185.14856	8936.675
2188.08661	8921.375
2191.02278	8930.775
2193.95707	8914.275
2196.88948	8925.275
2199.82001	8936.575
2202.74867	8943.575
2205.67545	8959.975
2208.60037	8928.975
2211.52341	8921.175
2214.44458	8961.675
2217.36388	8905.075
2220.28132	8880.075
2223.1969	8865.175
2226.11061	8873.375
2229.02246	8856.175
2231.93245	8850.575
2234.84058	8814.275
2237.74686	8803.375
2240.65128	8802.775
2243.55385	8778.275
2246.45456	8791.475
2249.35343	8785.775
2252.25044	8791.475
2255.14561	8769.975
2258.03893	8779.075
2260.93041	8762.775
2263.82004	8751.475
2266.70783	8724.975
2269.59378	8711.275
2272.4779	8705.775
2275.36017	8691.075
2278.24061	8675.075
2281.11922	8636.175
2283.996	8639.375
2286.87094	8630.475
2289.74405	8620.175
2292.61534	8632.375
2295.4848	8594.475
2298.35243	8618.175
2301.21824	8617.275
2304.08223	8614.275
2306.94439	8638.175
2309.80474	8630.975
2312.66327	8630.275
2315.51999	8640.575
2318.37489	8639.875
2321.22797	8631.475
2324.07925	8638.875
2326.92871	8619.175
2329.77637	8617.275
2332.62222	8615.575
2335.46626	8611.975
2338.3085	8576.175
2341.14893	8589.775
2343.98756	8599.775
2346.8244	8603.975
2349.65943	8612.275
2352.49267	8582.775
2355.32411	8591.475
2358.15376	8569.675
2360.98161	8594.375
2363.80768	8581.475
2366.63195	8575.475
2369.45444	8586.275
2372.27514	8564.375
2375.09405	8570.475
2377.91118	8541.975
2380.72652	8510.475
2383.54009	8506.075
2386.35187	8494.475
2389.16188	8438.675
2391.97011	8447.275
2394.77657	8434.075
2397.58125	8429.075
2400.38416	8421.075
2403.18529	8402.675
2405.98466	8366.575
2408.78226	8372.175
2411.57809	8347.375
2414.37216	8345.275
2417.16446	8338.375
2419.955	8320.575
2422.74378	8315.975
2425.5308	8345.475
2428.31606	8342.075
2431.09956	8332.675
2433.88131	8312.675
2436.6613	8333.175
2439.43954	8318.975
2442.21603	8316.975
2444.99077	8316.675
2447.76377	8333.875
2450.53501	8304.875
2453.30451	8290.075
2456.07226	8268.975
2458.83827	8299.975
2461.60254	8280.575
2464.36507	8282.375
2467.12586	8262.875
2469.88492	8276.775
2472.64224	8260.975
2475.39782	8289.275
2478.15167	8292.075
2480.90379	8267.875
2483.65417	8300.275
2486.40283	8304.975
2489.14976	8303.675
2491.89497	8301.675
2494.63845	8309.875
2497.3802	8305.575
2500.12024	8324.675
2502.85855	8297.875
2505.59514	8278.475
2508.33002	8284.275
2511.06318	8262.575
2513.79462	8242.375
2516.52435	8238.275
2519.25237	8226.275
2521.97867	8205.875
2524.70327	8193.775
2527.42616	8199.575
2530.14734	8198.375
2532.86681	8198.175
2535.58458	8176.975
2538.30065	8197.975
2541.01501	8191.875
2543.72768	8169.975
2546.43864	8168.775
2549.14791	8172.075
2551.85548	8148.675
2554.56136	8139.775
2557.26554	8162.675
2559.96803	8158.275
2562.66883	8128.175
2565.36794	8098.975
2568.06536	8090.675
2570.7611	8076.575
2573.45514	8093.475
2576.14751	8070.775
2578.83819	8097.475
2581.52719	8094.075
2584.21451	8061.675
2586.90015	8049.675
2589.58411	8053.175
2592.2664	8049.575
2594.94701	8047.675
2597.62594	8036.375
2600.30321	8034.875
2602.9788	8036.875
2605.65273	8026.175
2608.32498	8033.075
2610.99557	8035.375
2613.66449	8049.275
2616.33175	8038.775
2618.99734	8042.475
2621.66128	8008.575
2624.32355	8000.675
2626.98416	8033.375
2629.64311	8016.375
2632.30041	8029.175
2634.95605	7999.375
2637.61004	7984.775
2640.26238	7999.175
2642.91306	7985.375
2645.56209	7984.675
2648.20948	7960.175
2650.85521	7974.975
2653.4993	7938.575
2656.14175	7946.675
2658.78255	7959.675
2661.42171	7942.275
2664.05923	7980.675
2666.6951	7993.075
2669.32934	8085.975
2671.96194	8000.175
2674.59291	7982.475
2677.22224	7980.375
2679.84993	7994.275
2682.476	7988.975
2685.10043	7982.375
2687.72324	7976.575
2690.34441	7974.475
2692.96396	7985.375
2695.58188	7963.275
2698.19818	7960.075
2700.81285	7984.175
2703.4259	7961.975
2706.03733	7971.775
2708.64714	7991.975
2711.25533	7974.475
2713.86191	7972.175
2716.46687	7971.875
2719.07021	7975.375
2721.67194	7993.675
2724.27206	8006.475
2726.87057	7997.875
2729.46747	7981.275
2732.06276	7979.275
2734.65644	7996.175
2737.24852	7988.675
2739.83899	7983.075
2742.42786	8010.875
2745.01513	7972.875
2747.60079	7940.475
2750.18486	7951.975
2752.76733	7929.475
2755.3482	7947.175
2757.92747	7945.875
2760.50515	8021.775
2763.08123	7930.675
2765.65573	7923.275
2768.22863	7920.075
2770.79994	7908.075
2773.36967	7897.775
2775.9378	7916.675
2778.50435	7901.075
2781.06932	7899.275
2783.6327	7883.375
2786.1945	7897.175
2788.75471	7891.675
2791.31335	7891.175
2793.87041	7862.375
2796.42589	7851.375
2798.97979	7853.375
2801.53212	7840.575
2804.08288	7823.075
2806.63206	7816.275
2809.17967	7815.475
2811.72571	7779.075
2814.27018	7771.775
2816.81308	7767.775
2819.35442	7765.375
2821.89419	7732.775
2824.43239	7758.375
2826.96904	7759.375
2829.50412	7756.375
2832.03763	7732.575
2834.56959	7713.075
2837.1	7717.675
2839.62884	7751.975
2842.15613	7734.775
2844.68186	7712.175
2847.20604	7724.875
2849.72867	7706.875
2852.24974	7679.375
2854.76927	7687.575
2857.28724	7689.175
2859.80367	7703.875
2862.31855	7685.675
2864.83189	7689.575
2867.34368	7695.875
2869.85393	7684.075
2872.36264	7667.675
2874.8698	7665.475
2877.37543	7661.475
2879.87952	7672.175
2882.38207	7693.275
2884.88308	7670.475
2887.38256	7675.875
2889.88051	7699.375
2892.37692	7682.775
2894.8718	7718.275
2897.36515	7710.775
2899.85698	7693.475
2902.34727	7705.375
2904.83604	7727.075
2907.32328	7732.675
2909.809	7734.975
2912.29319	7732.675
2914.77587	7732.975
2917.25702	7725.975
2919.73665	7723.675
2922.21476	7717.275
2924.69136	7691.875
2927.16644	7716.375
2929.64	7719.875
2932.11205	7686.575
2934.58258	7668.175
2937.05161	7666.075
2939.51912	7687.675
2941.98513	7713.575
2944.44962	7683.475
2946.91261	7666.275
2949.37409	7677.475
2951.83407	7665.175
2954.29254	7659.975
2956.74951	7686.875
2959.20498	7676.575
2961.65895	7658.475
2964.11142	7673.175
2966.56239	7670.875
2969.01186	7675.275
2971.45984	7661.275
2973.90632	7648.575
2976.35131	7647.875
2978.7948	7649.075
2981.23681	7627.275
2983.67732	7596.675
2986.11635	7605.875
2988.55388	7600.575
2990.98993	7574.275
2993.4245	7575.375
2995.85758	7565.575
2998.28917	7548.675
3000.71928	7529.275
3003.14791	7537.575
3005.57506	7527.475
3008.00073	7490.375
3010.42493	7497.475
3012.84764	7485.975
3015.26888	7492.575
3017.68865	7459.475
3020.10694	7486.475
3022.52376	7450.175
3024.9391	7452.675
3027.35298	7440.775
3029.76539	7446.475
3032.17632	7442.975
3034.5858	7443.075
3036.9938	7427.375
3039.40034	7400.275
3041.80542	7422.075
3044.20903	7417.475
3046.61118	7405.475
3049.01187	7398.975
3051.4111	7386.775
3053.80888	7378.975
3056.20519	7378.575
3058.60005	7391.975
3060.99345	7333.675
3063.3854	7312.175
3065.7759	7295.375
3068.16494	7304.275
3070.55254	7283.575
3072.93868	7287.975
3075.32338	7262.875
3077.70662	7252.375
3080.08842	7228.275
3082.46878	7232.875
3084.84769	7219.175
3087.22515	7228.575
3089.60118	7247.875
3091.97576	7250.875
3094.3489	7221.075
3096.72061	7252.575
3099.09087	7269.575
3101.4597	7255.375
3103.82709	7257.875
3106.19305	7265.275
3108.55757	7287.175
3110.92066	7263.375
3113.28232	7265.375
3115.64255	7259.475
3118.00134	7243.875
3120.35871	7231.375
3122.71466	7227.675
3125.06917	7221.775
3127.42226	7202.475
3129.77393	7228.175
3132.12417	7214.475
3134.47299	7216.475
3136.82039	7208.675
3139.16636	7210.775
3141.51092	7203.475
3143.85406	7237.275
3146.19579	7224.475
3148.53609	7244.075
3150.87499	7261.275
3153.21246	7263.775
3155.54853	7294.375
3157.88318	7278.575
3160.21642	7300.375
3162.54826	7310.675
3164.87868	7301.275
3167.2077	7317.275
3169.5353	7318.275
3171.86151	7318.075
3174.18631	7321.275
3176.5097	7308.375
3178.83169	7319.575
3181.15228	7317.675
3183.47147	7273.875
3185.78926	7295.875
3188.10565	7278.975
3190.42065	7276.575
3192.73424	7275.675
3195.04645	7283.475
3197.35725	7301.475
3199.66667	7309.275
3201.97469	7312.575
3204.28132	7318.275
3206.58656	7334.275
3208.8904	7314.775
3211.19287	7318.975
3213.49394	7336.675
3215.79363	7333.675
3218.09193	7371.975
3220.38884	7338.475
3222.68438	7370.075
3224.97853	7355.675
3227.2713	7384.775
3229.56269	7371.775
3231.8527	7373.575
3234.14133	7338.275
3236.42858	7326.275
3238.71446	7344.975
3240.99896	7321.475
3243.28209	7304.575
3245.56384	7300.875
3247.84423	7333.075
3250.12324	7286.675
3252.40088	7296.275
3254.67715	7285.575
3256.95205	7285.175
3259.22558	7317.575
3261.49775	7308.375
3263.76855	7305.075
3266.03799	7305.275
3268.30606	7287.775
3270.57277	7307.075
3272.83812	7276.575
3275.10211	7270.175
3277.36474	7257.975
3279.62601	7243.975
3281.88593	7242.275
3284.14448	7258.475
3286.40168	7268.575
3288.65753	7263.175
3290.91202	7268.775
3293.16516	7246.875
3295.41695	7221.775
3297.66738	7210.575
3299.91647	7155.775
3302.16421	7104.775
3304.4106	7102.775
3306.65564	7049.975
3308.89933	7004.875
3311.14169	6963.075
3313.38269	6900.475
3315.62236	6881.375
3317.86068	6848.975
3320.09766	6790.275
3322.3333	6740.875
3324.5676	6707.775
3326.80056	6640.775
3329.03219	6605.175
3331.26248	2.375
3333.49143	0.375
3335.71905	-1.025
