Data from AgNPs_APTES_FTO_UA_50uM_CRN_0uM_R6G_10uM_Scan_RamanShift__63__12-24-33-734.txt Node

Date: Tue Jul 05 12:24:33 BST 2022
User: TCL
Spectrometer: QEP01345
Trigger mode: 4
Integration Time (sec): 7.000000E0
Scans to average: 10
Electric dark correction enabled: true
Nonlinearity correction enabled: false
Boxcar width: 0
XAxis mode: Raman Shifts
Number of Pixels in Spectrum: 1044
>>>>>Begin Spectral Data<<<<<
46.04893	-1.6875
50.45542	0.2125
54.85868	-0.4875
59.25871	1.0125
63.6555	48.2125
68.04907	54.6125
72.43941	57.6125
76.82654	58.1125
81.21044	60.0125
85.59113	64.5125
89.96862	66.3125
94.34289	67.3125
98.71396	73.0125
103.08183	75.0125
107.4465	73.9125
111.80798	76.2125
116.16626	74.5125
120.52136	74.9125
124.87327	82.3125
129.222	83.1125
133.56755	84.8125
137.90993	85.4125
142.24913	95.7125
146.58517	103.0125
150.91804	113.6125
155.24774	130.2125
159.57429	156.5125
163.89768	193.6125
168.21792	252.0125
172.53501	333.5125
176.84895	460.8125
181.15975	652.0125
185.46741	912.8125
189.77193	1254.0125
194.07331	1671.9125
198.37157	2166.1125
202.6667	2660.9125
206.9587	3168.9125
211.24758	3637.8125
215.53334	4127.7125
219.81599	4619.3125
224.09553	5160.5125
228.37195	5773.8125
232.64527	6437.0125
236.91549	7168.9125
241.18261	7939.2125
245.44663	8709.3125
249.70755	9402.7125
253.96539	10023.2125
258.22014	10561.4125
262.4718	10939.3125
266.72039	11208.2125
270.96589	11281.4125
275.20832	11271.2125
279.44768	11151.2125
283.68397	10975.9125
287.91719	10775.0125
292.14735	10604.1125
296.37445	10498.7125
300.59849	10398.6125
304.81948	10308.0125
309.03742	10255.6125
313.25231	10221.6125
317.46415	10153.5125
321.67296	10109.0125
325.87872	10094.9125
330.08145	10126.5125
334.28114	10165.3125
338.47781	10285.8125
342.67145	10399.3125
346.86207	10516.2125
351.04966	10613.3125
355.23424	10777.1125
359.4158	10912.4125
363.59435	10994.1125
367.76989	11148.4125
371.94243	11230.2125
376.11196	11307.9125
380.27849	11380.8125
384.44203	11451.7125
388.60257	11553.3125
392.76012	11607.1125
396.91468	11679.5125
401.06626	11799.9125
405.21485	11874.2125
409.36047	11920.6125
413.50311	11935.1125
417.64277	11920.7125
421.77947	11911.5125
425.9132	11982.9125
430.04396	12040.0125
434.17176	12138.0125
438.2966	12178.1125
442.41849	12317.7125
446.53742	12404.6125
450.6534	12535.8125
454.76644	12649.8125
458.87653	12718.4125
462.98368	12741.8125
467.08789	12808.8125
471.18916	12815.4125
475.2875	12780.8125
479.38291	12787.9125
483.4754	12776.9125
487.56496	12764.6125
491.6516	12791.3125
495.73531	12839.5125
499.81612	12830.3125
503.89401	12883.9125
507.96899	12951.2125
512.04106	12950.9125
516.11023	12982.6125
520.1765	12980.6125
524.23987	12944.8125
528.30034	12952.4125
532.35792	12968.0125
536.41261	12917.7125
540.46441	12904.7125
544.51333	12913.3125
548.55936	12949.7125
552.60252	13020.1125
556.64279	13129.5125
560.6802	13206.0125
564.71473	13292.3125
568.7464	13338.7125
572.7752	13416.8125
576.80114	13539.5125
580.82422	13632.5125
584.84444	13740.3125
588.86181	13881.1125
592.87633	14005.0125
596.888	14123.6125
600.89682	14108.7125
604.9028	14240.1125
608.90594	14592.2125
612.90624	14884.1125
616.90371	14587.3125
620.89834	13986.7125
624.89015	13716.6125
628.87913	13702.8125
632.86528	13728.3125
636.84862	13773.5125
640.82913	13712.3125
644.80683	13629.3125
648.78172	13570.5125
652.75379	13592.5125
656.72306	13667.9125
660.68952	13765.5125
664.65319	13825.0125
668.61405	13864.5125
672.57211	13916.4125
676.52738	13973.3125
680.47986	14025.2125
684.42955	14065.2125
688.37646	14126.8125
692.32058	14166.3125
696.26192	14190.8125
700.20048	14250.3125
704.13626	14242.5125
708.06928	14250.1125
711.99952	14248.8125
715.927	14214.5125
719.85171	14220.8125
723.77365	14165.2125
727.69284	14145.3125
731.60928	14076.8125
735.52295	14080.2125
739.43388	14102.5125
743.34206	14132.5125
747.24749	14185.6125
751.15017	14226.0125
755.05012	14280.5125
758.94733	14386.5125
762.8418	14561.5125
766.73354	14792.3125
770.62254	15075.3125
774.50882	15194.1125
778.39237	15130.1125
782.27321	14868.4125
786.15132	14636.1125
790.02671	14474.1125
793.89938	14356.7125
797.76935	14308.9125
801.6366	14297.7125
805.50115	14265.9125
809.36299	14276.4125
813.22213	14243.2125
817.07857	14255.5125
820.93231	14263.1125
824.78336	14275.3125
828.63172	14280.0125
832.47738	14287.9125
836.32036	14311.9125
840.16066	14296.5125
843.99827	14330.3125
847.8332	14387.8125
851.66546	14397.9125
855.49504	14401.3125
859.32195	14425.1125
863.1462	14426.4125
866.96777	14420.4125
870.78668	14439.2125
874.60293	14489.7125
878.41652	14513.8125
882.22745	14520.2125
886.03573	14513.1125
889.84136	14554.1125
893.64433	14574.0125
897.44466	14568.1125
901.24235	14570.1125
905.0374	14570.9125
908.8298	14576.1125
912.61957	14570.7125
916.40671	14593.8125
920.19121	14624.0125
923.97308	14626.8125
927.75233	14624.6125
931.52895	14595.5125
935.30295	14549.3125
939.07433	14493.4125
942.84309	14420.3125
946.60924	14376.2125
950.37278	14325.7125
954.13371	14319.1125
957.89203	14311.7125
961.64774	14349.8125
965.40086	14282.3125
969.15137	14295.9125
972.89929	14270.8125
976.64461	14261.8125
980.38733	14253.1125
984.12747	14267.1125
987.86502	14258.9125
991.59999	14276.9125
995.33237	14301.6125
999.06217	14340.0125
1002.78939	14436.2125
1006.51404	14503.6125
1010.23611	14546.3125
1013.95561	14629.8125
1017.67255	14628.6125
1021.38692	14609.6125
1025.09872	14543.5125
1028.80796	14477.3125
1032.51465	14464.3125
1036.21877	14464.8125
1039.92035	14503.8125
1043.61937	14494.2125
1047.31584	14570.1125
1051.00976	14577.5125
1054.70114	14619.2125
1058.38998	14635.9125
1062.07627	14693.8125
1065.76003	14740.0125
1069.44126	14774.3125
1073.11995	14816.4125
1076.79611	14924.0125
1080.46974	14970.7125
1084.14085	14941.1125
1087.80943	14955.0125
1091.47549	14985.5125
1095.13903	14996.2125
1098.80005	14995.5125
1102.45857	14946.5125
1106.11456	14919.0125
1109.76805	14849.2125
1113.41903	14776.6125
1117.06751	14766.6125
1120.71348	14813.9125
1124.35696	14807.2125
1127.99793	14874.4125
1131.63641	14920.3125
1135.2724	14886.9125
1138.90589	14874.5125
1142.5369	14889.7125
1146.16542	14825.9125
1149.79145	14813.2125
1153.415	14809.3125
1157.03607	14765.6125
1160.65467	14843.9125
1164.27079	14939.3125
1167.88443	15044.8125
1171.49561	15234.2125
1175.10432	15494.3125
1178.71056	15789.5125
1182.31434	16061.6125
1185.91565	16237.1125
1189.51451	16329.5125
1193.11091	16374.5125
1196.70485	16261.4125
1200.29634	16096.7125
1203.88538	15965.6125
1207.47197	15795.4125
1211.05612	15721.1125
1214.63782	15628.7125
1218.21708	15549.5125
1221.79391	15446.7125
1225.36829	15389.3125
1228.94024	15353.0125
1232.50976	15327.9125
1236.07685	15288.3125
1239.6415	15272.2125
1243.20374	15269.3125
1246.76355	15333.2125
1250.32093	15337.9125
1253.8759	15416.6125
1257.42845	15550.2125
1260.97859	15656.9125
1264.52631	15747.4125
1268.07163	15847.5125
1271.61453	15984.0125
1275.15503	16067.6125
1278.69312	16155.0125
1282.22882	16210.9125
1285.76211	16271.0125
1289.29301	16393.4125
1292.82151	16505.7125
1296.34761	16717.8125
1299.87133	16944.2125
1303.39266	17157.9125
1306.9116	17435.4125
1310.42815	17739.3125
1313.94233	17910.6125
1317.45412	17927.0125
1320.96354	17847.1125
1324.47058	17756.5125
1327.97525	17604.7125
1331.47754	17514.1125
1334.97747	17458.2125
1338.47502	17472.6125
1341.97022	17577.4125
1345.46305	17734.6125
1348.95352	17861.7125
1352.44163	17919.1125
1355.92738	17877.8125
1359.41078	17889.7125
1362.89183	17884.3125
1366.37053	17670.7125
1369.84688	17231.9125
1373.32088	16719.4125
1376.79254	16303.0125
1380.26186	16104.7125
1383.72883	15959.4125
1387.19347	15827.9125
1390.65578	15669.2125
1394.11575	15574.6125
1397.57339	15517.6125
1401.0287	15479.6125
1404.48168	15448.3125
1407.93234	15419.9125
1411.38068	15388.5125
1414.82669	15300.6125
1418.27039	15148.5125
1421.71177	14994.3125
1425.15083	14861.7125
1428.58758	14805.1125
1432.02203	14741.8125
1435.45416	14783.5125
1438.88399	14800.9125
1442.31151	14864.3125
1445.73673	14909.7125
1449.15965	14920.9125
1452.58027	14965.8125
1455.9986	14993.3125
1459.41463	15042.8125
1462.82837	15100.9125
1466.23982	15186.7125
1469.64898	15305.7125
1473.05586	15391.6125
1476.46045	15390.7125
1479.86276	15423.0125
1483.26279	15454.0125
1486.66054	15487.0125
1490.05602	15537.5125
1493.44922	15643.4125
1496.84016	15784.7125
1500.22882	16004.7125
1503.61521	16233.5125
1506.99934	16401.9125
1510.38121	16488.5125
1513.76081	16468.4125
1517.13816	16342.7125
1520.51324	16167.4125
1523.88607	15992.4125
1527.25665	15899.7125
1530.62498	15821.7125
1533.99105	15781.8125
1537.35488	15761.0125
1540.71647	15685.1125
1544.07581	15612.5125
1547.4329	15564.3125
1550.78776	15553.9125
1554.14038	15520.7125
1557.49077	15538.2125
1560.83892	15577.3125
1564.18484	15632.2125
1567.52853	15659.2125
1570.86999	15729.6125
1574.20922	15761.3125
1577.54624	15795.8125
1580.88103	15719.7125
1584.2136	15646.3125
1587.54395	15663.4125
1590.87208	15735.0125
1594.19801	15909.6125
1597.52172	16136.4125
1600.84321	16145.5125
1604.16251	16011.1125
1607.47959	15783.2125
1610.79447	15455.8125
1614.10715	15091.0125
1617.41763	14774.3125
1620.7259	14517.2125
1624.03199	14365.2125
1627.33587	14310.3125
1630.63757	14356.1125
1633.93707	14436.8125
1637.23439	14722.8125
1640.52951	15153.0125
1643.82246	15664.0125
1647.11321	16083.8125
1650.40179	16221.3125
1653.68819	16000.6125
1656.97241	15413.0125
1660.25446	14713.8125
1663.53433	14213.3125
1666.81203	13845.4125
1670.08756	13602.3125
1673.36092	13444.0125
1676.63211	13293.0125
1679.90115	13211.0125
1683.16801	13118.3125
1686.43272	13072.3125
1689.69527	13086.3125
1692.95567	13026.9125
1696.2139	13021.3125
1699.46999	12967.1125
1702.72392	12933.4125
1705.97571	12929.0125
1709.22535	12940.5125
1712.47284	12916.8125
1715.71819	12924.5125
1718.96139	12895.3125
1722.20246	12891.9125
1725.44139	12822.3125
1728.67818	12794.5125
1731.91284	12803.2125
1735.14537	12686.2125
1738.37576	12629.7125
1741.60403	12609.0125
1744.83017	12575.4125
1748.05418	12567.2125
1751.27607	12543.7125
1754.49584	12506.4125
1757.71349	12466.7125
1760.92903	12466.5125
1764.14244	12452.0125
1767.35375	12455.5125
1770.56294	12418.8125
1773.77002	12424.0125
1776.97499	12393.1125
1780.17785	12393.6125
1783.37861	12395.7125
1786.57727	12363.8125
1789.77382	12345.4125
1792.96828	12306.6125
1796.16064	12319.2125
1799.3509	12282.6125
1802.53907	12236.0125
1805.72514	12200.6125
1808.90913	12195.6125
1812.09102	12201.9125
1815.27083	12158.6125
1818.44856	12140.3125
1821.6242	12130.0125
1824.79776	12083.7125
1827.96924	12060.5125
1831.13864	12070.6125
1834.30597	12073.2125
1837.47122	12044.1125
1840.6344	12032.1125
1843.7955	12001.0125
1846.95454	11979.6125
1850.11151	11993.1125
1853.26642	11996.6125
1856.41926	11994.2125
1859.57004	11984.3125
1862.71876	11992.4125
1865.86542	11966.1125
1869.01003	11935.1125
1872.15258	11955.3125
1875.29308	11903.3125
1878.43152	11878.5125
1881.56792	11903.8125
1884.70227	11857.1125
1887.83457	11834.1125
1890.96482	11798.2125
1894.09304	11786.8125
1897.21921	11761.2125
1900.34335	11741.5125
1903.46544	11737.4125
1906.58551	11753.2125
1909.70353	11691.9125
1912.81953	11677.3125
1915.93349	11696.4125
1919.04543	11676.3125
1922.15534	11649.4125
1925.26322	11621.1125
1928.36908	11576.3125
1931.47292	11573.4125
1934.57473	11549.3125
1937.67453	11531.0125
1940.77232	11481.1125
1943.86808	11452.4125
1946.96184	11422.4125
1950.05358	11372.9125
1953.14331	11359.4125
1956.23103	11316.5125
1959.31675	11276.7125
1962.40046	11229.7125
1965.48217	11202.4125
1968.56188	11197.8125
1971.63959	11117.7125
1974.7153	11086.0125
1977.78901	11078.2125
1980.86073	11048.7125
1983.93046	10991.5125
1986.99819	10953.9125
1990.06394	10922.5125
1993.1277	10907.3125
1996.18947	10825.0125
1999.24925	10815.5125
2002.30706	10789.1125
2005.36288	10746.7125
2008.41672	10742.4125
2011.46859	10699.6125
2014.51848	10649.5125
2017.56639	10630.5125
2020.61233	10628.6125
2023.6563	10575.3125
2026.6983	10530.3125
2029.73833	10480.3125
2032.7764	10462.4125
2035.8125	10419.6125
2038.84664	10414.4125
2041.87881	10402.4125
2044.90903	10388.7125
2047.93729	10332.2125
2050.96359	10321.1125
2053.98794	10321.2125
2057.01034	10288.7125
2060.03078	10283.1125
2063.04927	10284.8125
2066.06582	10294.6125
2069.08042	10237.2125
2072.09307	10201.0125
2075.10378	10221.6125
2078.11255	10241.4125
2081.11938	10257.9125
2084.12426	10224.3125
2087.12722	10230.9125
2090.12824	10197.4125
2093.12732	10191.8125
2096.12447	10204.7125
2099.11969	10210.9125
2102.11299	10203.0125
2105.10435	10205.7125
2108.09379	10191.6125
2111.08131	10203.8125
2114.0669	10191.0125
2117.05057	10238.9125
2120.03233	10234.8125
2123.01216	10212.8125
2125.99008	10216.8125
2128.96609	10232.8125
2131.94018	10251.0125
2134.91236	10255.3125
2137.88263	10285.9125
2140.851	10256.4125
2143.81746	10264.5125
2146.78201	10241.5125
2149.74466	10233.8125
2152.7054	10247.1125
2155.66425	10231.5125
2158.6212	10218.1125
2161.57625	10220.3125
2164.52941	10207.6125
2167.48067	10233.5125
2170.43004	10222.2125
2173.37752	10209.8125
2176.32311	10211.0125
2179.26681	10174.3125
2182.20863	10171.6125
2185.14856	10199.2125
2188.08661	10167.6125
2191.02278	10163.6125
2193.95707	10130.7125
2196.88948	10157.5125
2199.82001	10172.5125
2202.74867	10133.1125
2205.67545	10098.8125
2208.60037	10068.7125
2211.52341	10045.5125
2214.44458	10030.2125
2217.36388	9993.9125
2220.28132	9990.2125
2223.1969	9950.6125
2226.11061	9956.8125
2229.02246	9931.4125
2231.93245	9890.8125
2234.84058	9889.4125
2237.74686	9901.9125
2240.65128	9881.2125
2243.55385	9865.3125
2246.45456	9832.3125
2249.35343	9781.1125
2252.25044	9802.9125
2255.14561	9774.5125
2258.03893	9757.5125
2260.93041	9724.9125
2263.82004	9690.2125
2266.70783	9695.9125
2269.59378	9643.2125
2272.4779	9623.3125
2275.36017	9584.4125
2278.24061	9562.0125
2281.11922	9532.0125
2283.996	9516.8125
2286.87094	9498.3125
2289.74405	9477.2125
2292.61534	9460.6125
2295.4848	9445.0125
2298.35243	9440.5125
2301.21824	9455.2125
2304.08223	9442.9125
2306.94439	9424.2125
2309.80474	9423.1125
2312.66327	9386.5125
2315.51999	9395.8125
2318.37489	9365.3125
2321.22797	9351.7125
2324.07925	9328.6125
2326.92871	9306.0125
2329.77637	9293.8125
2332.62222	9290.6125
2335.46626	9250.4125
2338.3085	9239.8125
2341.14893	9225.9125
2343.98756	9221.6125
2346.8244	9194.6125
2349.65943	9177.2125
2352.49267	9164.6125
2355.32411	9136.3125
2358.15376	9182.6125
2360.98161	9152.2125
2363.80768	9143.2125
2366.63195	9164.7125
2369.45444	9126.0125
2372.27514	9134.9125
2375.09405	9095.0125
2377.91118	9055.8125
2380.72652	9043.0125
2383.54009	9035.9125
2386.35187	9015.8125
2389.16188	8972.0125
2391.97011	8945.6125
2394.77657	8911.2125
2397.58125	8901.9125
2400.38416	8899.7125
2403.18529	8878.4125
2405.98466	8862.8125
2408.78226	8829.7125
2411.57809	8824.2125
2414.37216	8825.2125
2417.16446	8806.5125
2419.955	8783.6125
2422.74378	8799.9125
2425.5308	8780.8125
2428.31606	8788.2125
2431.09956	8773.4125
2433.88131	8757.0125
2436.6613	8726.4125
2439.43954	8743.6125
2442.21603	8721.4125
2444.99077	8691.1125
2447.76377	8706.9125
2450.53501	8667.4125
2453.30451	8672.8125
2456.07226	8648.3125
2458.83827	8611.3125
2461.60254	8633.4125
2464.36507	8600.4125
2467.12586	8604.9125
2469.88492	8578.0125
2472.64224	8554.9125
2475.39782	8566.9125
2478.15167	8559.0125
2480.90379	8567.1125
2483.65417	8526.0125
2486.40283	8549.2125
2489.14976	8527.5125
2491.89497	8506.1125
2494.63845	8506.8125
2497.3802	8488.4125
2500.12024	8485.5125
2502.85855	8449.2125
2505.59514	8469.0125
2508.33002	8442.8125
2511.06318	8427.8125
2513.79462	8419.5125
2516.52435	8381.1125
2519.25237	8391.3125
2521.97867	8379.6125
2524.70327	8356.8125
2527.42616	8344.4125
2530.14734	8312.9125
2532.86681	8311.2125
2535.58458	8331.3125
2538.30065	8276.5125
2541.01501	8282.1125
2543.72768	8245.6125
2546.43864	8227.4125
2549.14791	8206.3125
2551.85548	8183.4125
2554.56136	8171.5125
2557.26554	8180.1125
2559.96803	8149.5125
2562.66883	8139.5125
2565.36794	8091.2125
2568.06536	8089.4125
2570.7611	8050.7125
2573.45514	8056.7125
2576.14751	8036.8125
2578.83819	8031.0125
2581.52719	8006.1125
2584.21451	7984.7125
2586.90015	7969.4125
2589.58411	7946.4125
2592.2664	7953.1125
2594.94701	7909.6125
2597.62594	7900.9125
2600.30321	7847.6125
2602.9788	7881.6125
2605.65273	7837.4125
2608.32498	7816.4125
2610.99557	7835.9125
2613.66449	7835.7125
2616.33175	7810.7125
2618.99734	7799.8125
2621.66128	7773.1125
2624.32355	7759.1125
2626.98416	7758.5125
2629.64311	7728.0125
2632.30041	7737.4125
2634.95605	7719.3125
2637.61004	7714.8125
2640.26238	7676.7125
2642.91306	7693.2125
2645.56209	7673.1125
2648.20948	7654.0125
2650.85521	7667.5125
2653.4993	7638.4125
2656.14175	7635.8125
2658.78255	7641.1125
2661.42171	7626.9125
2664.05923	7642.5125
2666.6951	7636.9125
2669.32934	7623.9125
2671.96194	7603.5125
2674.59291	7589.4125
2677.22224	7593.4125
2679.84993	7590.1125
2682.476	7578.0125
2685.10043	7581.6125
2687.72324	7576.5125
2690.34441	7602.1125
2692.96396	7567.8125
2695.58188	7561.6125
2698.19818	7561.3125
2700.81285	7538.6125
2703.4259	7544.0125
2706.03733	7556.9125
2708.64714	7531.9125
2711.25533	7525.3125
2713.86191	7520.7125
2716.46687	7509.3125
2719.07021	7517.2125
2721.67194	7530.7125
2724.27206	7511.5125
2726.87057	7542.0125
2729.46747	7508.1125
2732.06276	7522.4125
2734.65644	7496.8125
2737.24852	7462.4125
2739.83899	7488.6125
2742.42786	7483.0125
2745.01513	7447.8125
2747.60079	7441.4125
2750.18486	7435.6125
2752.76733	7408.2125
2755.3482	7409.8125
2757.92747	7420.4125
2760.50515	7398.5125
2763.08123	7389.3125
2765.65573	7349.3125
2768.22863	7349.1125
2770.79994	7329.7125
2773.36967	7297.3125
2775.9378	7315.4125
2778.50435	7266.2125
2781.06932	7273.7125
2783.6327	7265.7125
2786.1945	7268.1125
2788.75471	7239.2125
2791.31335	7224.0125
2793.87041	7198.1125
2796.42589	7188.5125
2798.97979	7175.8125
2801.53212	7143.3125
2804.08288	7141.2125
2806.63206	7123.6125
2809.17967	7083.4125
2811.72571	7083.1125
2814.27018	7064.6125
2816.81308	7020.7125
2819.35442	7015.6125
2821.89419	6990.6125
2824.43239	6973.0125
2826.96904	6973.7125
2829.50412	6945.0125
2832.03763	6943.9125
2834.56959	6950.3125
2837.1	6944.0125
2839.62884	6915.2125
2842.15613	6904.3125
2844.68186	6902.7125
2847.20604	6877.4125
2849.72867	6897.8125
2852.24974	6866.3125
2854.76927	6875.2125
2857.28724	6847.4125
2859.80367	6841.0125
2862.31855	6813.0125
2864.83189	6817.2125
2867.34368	6789.3125
2869.85393	6801.2125
2872.36264	6762.5125
2874.8698	6769.2125
2877.37543	6782.6125
2879.87952	6784.8125
2882.38207	6766.7125
2884.88308	6761.7125
2887.38256	6751.5125
2889.88051	6737.6125
2892.37692	6743.1125
2894.8718	6727.8125
2897.36515	6731.0125
2899.85698	6727.8125
2902.34727	6727.0125
2904.83604	6707.7125
2907.32328	6738.8125
2909.809	6733.6125
2912.29319	6710.4125
2914.77587	6714.2125
2917.25702	6724.7125
2919.73665	6701.3125
2922.21476	6700.3125
2924.69136	6689.5125
2927.16644	6673.5125
2929.64	6680.4125
2932.11205	6663.2125
2934.58258	6641.8125
2937.05161	6665.7125
2939.51912	6662.3125
2941.98513	6652.6125
2944.44962	6638.4125
2946.91261	6630.6125
2949.37409	6640.2125
2951.83407	6629.8125
2954.29254	6607.1125
2956.74951	6596.9125
2959.20498	6607.4125
2961.65895	6597.8125
2964.11142	6606.6125
2966.56239	6600.5125
2969.01186	6583.7125
2971.45984	6577.5125
2973.90632	6595.9125
2976.35131	6572.3125
2978.7948	6562.9125
2981.23681	6532.0125
2983.67732	6543.0125
2986.11635	6495.3125
2988.55388	6518.1125
2990.98993	6512.9125
2993.4245	6512.2125
2995.85758	6482.9125
2998.28917	6457.5125
3000.71928	6452.5125
3003.14791	6447.7125
3005.57506	6424.8125
3008.00073	6410.7125
3010.42493	6422.5125
3012.84764	6383.4125
3015.26888	6383.7125
3017.68865	6380.0125
3020.10694	6372.2125
3022.52376	6365.6125
3024.9391	6334.6125
3027.35298	6338.4125
3029.76539	6340.9125
3032.17632	6327.7125
3034.5858	6314.6125
3036.9938	6291.9125
3039.40034	6295.5125
3041.80542	6294.8125
3044.20903	6296.4125
3046.61118	6266.6125
3049.01187	6273.3125
3051.4111	6251.9125
3053.80888	6254.9125
3056.20519	6244.3125
3058.60005	6223.1125
3060.99345	6222.4125
3063.3854	6206.1125
3065.7759	6193.1125
3068.16494	6168.0125
3070.55254	6138.4125
3072.93868	6137.4125
3075.32338	6149.3125
3077.70662	6113.5125
3080.08842	6095.6125
3082.46878	6080.2125
3084.84769	6089.7125
3087.22515	6085.5125
3089.60118	6111.7125
3091.97576	6093.7125
3094.3489	6096.5125
3096.72061	6109.3125
3099.09087	6107.6125
3101.4597	6126.3125
3103.82709	6117.9125
3106.19305	6119.0125
3108.55757	6113.8125
3110.92066	6107.4125
3113.28232	6114.0125
3115.64255	6071.9125
3118.00134	6065.5125
3120.35871	6040.1125
3122.71466	6019.6125
3125.06917	6038.6125
3127.42226	6044.4125
3129.77393	6047.4125
3132.12417	6016.0125
3134.47299	6027.7125
3136.82039	6032.8125
3139.16636	6019.3125
3141.51092	6029.4125
3143.85406	6031.3125
3146.19579	6025.9125
3148.53609	6044.1125
3150.87499	6036.8125
3153.21246	6054.7125
3155.54853	6045.0125
3157.88318	6042.5125
3160.21642	6064.9125
3162.54826	6080.3125
3164.87868	6073.5125
3167.2077	6073.4125
3169.5353	6069.8125
3171.86151	6071.8125
3174.18631	6070.0125
3176.5097	6084.3125
3178.83169	6040.3125
3181.15228	6063.0125
3183.47147	6031.8125
3185.78926	6024.9125
3188.10565	6019.6125
3190.42065	6036.3125
3192.73424	6040.1125
3195.04645	6015.2125
3197.35725	6029.9125
3199.66667	6010.3125
3201.97469	6021.3125
3204.28132	6018.5125
3206.58656	6014.8125
3208.8904	6011.8125
3211.19287	6012.2125
3213.49394	6036.4125
3215.79363	6030.1125
3218.09193	6044.9125
3220.38884	6022.8125
3222.68438	6051.6125
3224.97853	6013.3125
3227.2713	6047.8125
3229.56269	6021.2125
3231.8527	6004.0125
3234.14133	6020.5125
3236.42858	5982.6125
3238.71446	5982.3125
3240.99896	5953.4125
3243.28209	5949.2125
3245.56384	5928.5125
3247.84423	5944.5125
3250.12324	5935.3125
3252.40088	5940.6125
3254.67715	5905.7125
3256.95205	5904.2125
3259.22558	5916.3125
3261.49775	5883.5125
3263.76855	5893.6125
3266.03799	5869.5125
3268.30606	5884.2125
3270.57277	5852.0125
3272.83812	5852.0125
3275.10211	5849.9125
3277.36474	5831.3125
3279.62601	5816.1125
3281.88593	5797.3125
3284.14448	5801.8125
3286.40168	5796.0125
3288.65753	5787.7125
3290.91202	5778.5125
3293.16516	5767.8125
3295.41695	5770.6125
3297.66738	5735.0125
3299.91647	5736.9125
3302.16421	5666.3125
3304.4106	5652.9125
3306.65564	5644.0125
3308.89933	5610.8125
3311.14169	5569.1125
3313.38269	5532.1125
3315.62236	5486.6125
3317.86068	5445.0125
3320.09766	5412.7125
3322.3333	5365.0125
3324.5676	5354.3125
3326.80056	5295.8125
3329.03219	5283.6125
3331.26248	1.8125
3333.49143	-0.5875
3335.71905	-0.4875
