Data from AgNPs_APTES_FTO_UA_50uM_CRN_0uM_R6G_10uM_Scan_RamanShift__1__11-12-13-647.txt Node

Date: Tue Jul 05 11:12:13 BST 2022
User: TCL
Spectrometer: QEP01345
Trigger mode: 4
Integration Time (sec): 7.000000E0
Scans to average: 10
Electric dark correction enabled: true
Nonlinearity correction enabled: false
Boxcar width: 0
XAxis mode: Raman Shifts
Number of Pixels in Spectrum: 1044
>>>>>Begin Spectral Data<<<<<
46.04893	-0.3875
50.45542	-0.1875
54.85868	-0.0875
59.25871	0.3125
63.6555	45.8125
68.04907	48.9125
72.43941	55.2125
76.82654	54.0125
81.21044	58.1125
85.59113	63.9125
89.96862	65.6125
94.34289	65.6125
98.71396	68.8125
103.08183	72.6125
107.4465	68.7125
111.80798	72.6125
116.16626	70.4125
120.52136	69.4125
124.87327	74.6125
129.222	78.4125
133.56755	79.8125
137.90993	76.0125
142.24913	83.2125
146.58517	87.4125
150.91804	93.8125
155.24774	104.0125
159.57429	118.9125
163.89768	147.2125
168.21792	184.3125
172.53501	235.3125
176.84895	316.3125
181.15975	427.4125
185.46741	590.1125
189.77193	813.4125
194.07331	1098.4125
198.37157	1432.4125
202.6667	1796.0125
206.9587	2176.3125
211.24758	2560.9125
215.53334	2953.0125
219.81599	3376.6125
224.09553	3850.0125
228.37195	4376.9125
232.64527	4916.3125
236.91549	5481.5125
241.18261	5989.0125
245.44663	6468.1125
249.70755	6885.9125
253.96539	7191.5125
258.22014	7430.2125
262.4718	7579.0125
266.72039	7583.5125
270.96589	7501.8125
275.20832	7292.4125
279.44768	6993.1125
283.68397	6652.3125
287.91719	6320.3125
292.14735	6054.7125
296.37445	5929.4125
300.59849	5895.8125
304.81948	5922.6125
309.03742	5997.1125
313.25231	5982.8125
317.46415	5718.8125
321.67296	5273.4125
325.87872	4830.6125
330.08145	4577.1125
334.28114	4476.2125
338.47781	4504.9125
342.67145	4602.0125
346.86207	4781.1125
351.04966	5022.4125
355.23424	5288.9125
359.4158	5434.2125
363.59435	5375.5125
367.76989	5261.4125
371.94243	5145.4125
376.11196	5035.0125
380.27849	4927.3125
384.44203	4852.2125
388.60257	4764.8125
392.76012	4721.5125
396.91468	4755.2125
401.06626	4834.9125
405.21485	4870.5125
409.36047	4765.2125
413.50311	4502.2125
417.64277	4256.0125
421.77947	4095.3125
425.9132	4035.5125
430.04396	4023.8125
434.17176	4029.4125
438.2966	4079.5125
442.41849	4169.5125
446.53742	4232.7125
450.6534	4284.2125
454.76644	4316.6125
458.87653	4305.8125
462.98368	4289.7125
467.08789	4250.3125
471.18916	4200.2125
475.2875	4120.0125
479.38291	4072.7125
483.4754	4036.1125
487.56496	4000.1125
491.6516	4013.4125
495.73531	4011.6125
499.81612	4037.2125
503.89401	4079.8125
507.96899	4140.8125
512.04106	4236.4125
516.11023	4322.3125
520.1765	4372.2125
524.23987	4393.1125
528.30034	4357.7125
532.35792	4302.5125
536.41261	4232.2125
540.46441	4166.8125
544.51333	4102.4125
548.55936	4121.9125
552.60252	4179.7125
556.64279	4241.5125
560.6802	4342.7125
564.71473	4449.3125
568.7464	4673.9125
572.7752	4732.8125
576.80114	4483.1125
580.82422	4238.3125
584.84444	4136.8125
588.86181	4139.5125
592.87633	4189.2125
596.888	4333.3125
600.89682	4612.5125
604.9028	5332.7125
608.90594	7021.9125
612.90624	9263.2125
616.90371	9392.9125
620.89834	7008.3125
624.89015	5673.5125
628.87913	5286.5125
632.86528	5143.4125
636.84862	5036.2125
640.82913	4789.4125
644.80683	4475.2125
648.78172	4254.2125
652.75379	4235.8125
656.72306	4403.2125
660.68952	4650.0125
664.65319	4673.5125
668.61405	4520.9125
672.57211	4511.8125
676.52738	4638.4125
680.47986	4901.4125
684.42955	5157.9125
688.37646	5331.9125
692.32058	5285.7125
696.26192	5100.1125
700.20048	4923.2125
704.13626	4848.9125
708.06928	4775.1125
711.99952	4695.3125
715.927	4611.3125
719.85171	4571.2125
723.77365	4534.0125
727.69284	4448.3125
731.60928	4389.9125
735.52295	4349.1125
739.43388	4332.5125
743.34206	4317.0125
747.24749	4299.2125
751.15017	4306.1125
755.05012	4362.6125
758.94733	4560.8125
762.8418	5098.1125
766.73354	6004.6125
770.62254	6855.9125
774.50882	7140.5125
778.39237	6847.1125
782.27321	6112.2125
786.15132	5286.7125
790.02671	4738.0125
793.89938	4509.0125
797.76935	4423.1125
801.6366	4405.6125
805.50115	4415.4125
809.36299	4413.1125
813.22213	4445.9125
817.07857	4453.3125
820.93231	4450.5125
824.78336	4443.5125
828.63172	4440.8125
832.47738	4436.5125
836.32036	4447.1125
840.16066	4425.2125
843.99827	4436.9125
847.8332	4441.2125
851.66546	4425.0125
855.49504	4411.7125
859.32195	4426.8125
863.1462	4450.3125
866.96777	4467.2125
870.78668	4535.0125
874.60293	4559.2125
878.41652	4605.2125
882.22745	4682.4125
886.03573	4791.4125
889.84136	4894.0125
893.64433	5021.2125
897.44466	5149.2125
901.24235	5245.5125
905.0374	5366.5125
908.8298	5451.0125
912.61957	5573.7125
916.40671	5730.7125
920.19121	5898.3125
923.97308	6065.8125
927.75233	6256.6125
931.52895	6346.3125
935.30295	6263.8125
939.07433	5980.1125
942.84309	5706.0125
946.60924	5431.1125
950.37278	5233.4125
954.13371	5073.0125
957.89203	4971.4125
961.64774	4843.4125
965.40086	4742.1125
969.15137	4678.0125
972.89929	4581.4125
976.64461	4516.3125
980.38733	4463.3125
984.12747	4416.8125
987.86502	4398.5125
991.59999	4380.9125
995.33237	4362.8125
999.06217	4369.8125
1002.78939	4394.1125
1006.51404	4453.0125
1010.23611	4492.8125
1013.95561	4501.6125
1017.67255	4464.9125
1021.38692	4441.3125
1025.09872	4425.3125
1028.80796	4406.8125
1032.51465	4412.9125
1036.21877	4453.6125
1039.92035	4516.2125
1043.61937	4594.8125
1047.31584	4651.2125
1051.00976	4704.4125
1054.70114	4700.0125
1058.38998	4625.5125
1062.07627	4582.1125
1065.76003	4528.8125
1069.44126	4414.4125
1073.11995	4361.2125
1076.79611	4367.7125
1080.46974	4406.4125
1084.14085	4516.3125
1087.80943	4643.3125
1091.47549	4674.8125
1095.13903	4552.5125
1098.80005	4367.5125
1102.45857	4233.8125
1106.11456	4209.2125
1109.76805	4239.3125
1113.41903	4337.1125
1117.06751	4484.8125
1120.71348	4710.5125
1124.35696	4977.9125
1127.99793	5296.8125
1131.63641	5314.7125
1135.2724	5001.2125
1138.90589	4706.8125
1142.5369	4544.7125
1146.16542	4415.0125
1149.79145	4309.8125
1153.415	4246.7125
1157.03607	4244.5125
1160.65467	4275.0125
1164.27079	4359.4125
1167.88443	4526.7125
1171.49561	4767.0125
1175.10432	5236.9125
1178.71056	5983.5125
1182.31434	6625.0125
1185.91565	6720.6125
1189.51451	6365.0125
1193.11091	5868.7125
1196.70485	5444.1125
1200.29634	5173.4125
1203.88538	5014.3125
1207.47197	4755.8125
1211.05612	4481.4125
1214.63782	4349.1125
1218.21708	4273.2125
1221.79391	4226.7125
1225.36829	4227.1125
1228.94024	4251.6125
1232.50976	4258.3125
1236.07685	4267.1125
1239.6415	4302.6125
1243.20374	4339.0125
1246.76355	4395.1125
1250.32093	4460.4125
1253.8759	4516.1125
1257.42845	4620.8125
1260.97859	4762.2125
1264.52631	4924.0125
1268.07163	5087.6125
1271.61453	5223.5125
1275.15503	5311.2125
1278.69312	5323.0125
1282.22882	5329.2125
1285.76211	5456.2125
1289.29301	5698.9125
1292.82151	5948.3125
1296.34761	6177.8125
1299.87133	6468.4125
1303.39266	7016.2125
1306.9116	7951.6125
1310.42815	9105.8125
1313.94233	9654.6125
1317.45412	9133.9125
1320.96354	8079.4125
1324.47058	7111.6125
1327.97525	6416.1125
1331.47754	5992.0125
1334.97747	5825.7125
1338.47502	5881.8125
1341.97022	6098.8125
1345.46305	6571.5125
1348.95352	7320.2125
1352.44163	8156.1125
1355.92738	9142.9125
1359.41078	10657.9125
1362.89183	12528.2125
1366.37053	12796.3125
1369.84688	10785.6125
1373.32088	8581.0125
1376.79254	7342.6125
1380.26186	6798.2125
1383.72883	6490.3125
1387.19347	6240.1125
1390.65578	6020.4125
1394.11575	5865.9125
1397.57339	5745.5125
1401.0287	5659.9125
1404.48168	5597.6125
1407.93234	5489.5125
1411.38068	5428.8125
1414.82669	5406.4125
1418.27039	5449.9125
1421.71177	5460.6125
1425.15083	5400.3125
1428.58758	5313.0125
1432.02203	5262.8125
1435.45416	5276.5125
1438.88399	5257.9125
1442.31151	5175.5125
1445.73673	5109.4125
1449.15965	5066.2125
1452.58027	5037.7125
1455.9986	4965.2125
1459.41463	4938.4125
1462.82837	4934.8125
1466.23982	4974.4125
1469.64898	5074.6125
1473.05586	5121.2125
1476.46045	5125.3125
1479.86276	5158.1125
1483.26279	5238.4125
1486.66054	5372.8125
1490.05602	5575.4125
1493.44922	5899.4125
1496.84016	6463.7125
1500.22882	7369.6125
1503.61521	8659.2125
1506.99934	10260.7125
1510.38121	11724.8125
1513.76081	12270.1125
1517.13816	11362.3125
1520.51324	9551.9125
1523.88607	7844.5125
1527.25665	6712.4125
1530.62498	6075.9125
1533.99105	5733.3125
1537.35488	5493.8125
1540.71647	5341.8125
1544.07581	5254.3125
1547.4329	5267.1125
1550.78776	5295.0125
1554.14038	5355.7125
1557.49077	5427.8125
1560.83892	5545.4125
1564.18484	5734.1125
1567.52853	6054.1125
1570.86999	6350.4125
1574.20922	6537.9125
1577.54624	6525.4125
1580.88103	6163.8125
1584.2136	5579.8125
1587.54395	5124.1125
1590.87208	4916.9125
1594.19801	4947.2125
1597.52172	5105.8125
1600.84321	5150.8125
1604.16251	4999.3125
1607.47959	4825.6125
1610.79447	4711.6125
1614.10715	4605.3125
1617.41763	4495.2125
1620.7259	4419.9125
1624.03199	4416.7125
1627.33587	4449.4125
1630.63757	4509.6125
1633.93707	4611.8125
1637.23439	4785.1125
1640.52951	5077.9125
1643.82246	5705.7125
1647.11321	6586.9125
1650.40179	7476.5125
1653.68819	7622.7125
1656.97241	6800.6125
1660.25446	5707.9125
1663.53433	4900.3125
1666.81203	4409.0125
1670.08756	4136.4125
1673.36092	3966.2125
1676.63211	3862.4125
1679.90115	3783.8125
1683.16801	3738.2125
1686.43272	3691.4125
1689.69527	3663.2125
1692.95567	3632.6125
1696.2139	3613.6125
1699.46999	3591.0125
1702.72392	3550.9125
1705.97571	3531.7125
1709.22535	3538.1125
1712.47284	3510.7125
1715.71819	3488.7125
1718.96139	3482.5125
1722.20246	3459.7125
1725.44139	3419.4125
1728.67818	3396.5125
1731.91284	3369.6125
1735.14537	3368.4125
1738.37576	3330.0125
1741.60403	3319.5125
1744.83017	3314.7125
1748.05418	3308.4125
1751.27607	3316.9125
1754.49584	3320.2125
1757.71349	3308.7125
1760.92903	3304.3125
1764.14244	3313.2125
1767.35375	3304.3125
1770.56294	3293.6125
1773.77002	3290.2125
1776.97499	3283.4125
1780.17785	3283.6125
1783.37861	3263.4125
1786.57727	3246.9125
1789.77382	3217.3125
1792.96828	3211.5125
1796.16064	3196.9125
1799.3509	3173.2125
1802.53907	3139.1125
1805.72514	3129.7125
1808.90913	3105.2125
1812.09102	3086.1125
1815.27083	3070.2125
1818.44856	3055.5125
1821.6242	3039.3125
1824.79776	3035.9125
1827.96924	3018.3125
1831.13864	2998.2125
1834.30597	3001.4125
1837.47122	2991.1125
1840.6344	2972.1125
1843.7955	2972.1125
1846.95454	2961.2125
1850.11151	2951.0125
1853.26642	2951.1125
1856.41926	2953.0125
1859.57004	2945.0125
1862.71876	2945.8125
1865.86542	2943.7125
1869.01003	2944.0125
1872.15258	2941.9125
1875.29308	2936.1125
1878.43152	2933.1125
1881.56792	2915.9125
1884.70227	2918.6125
1887.83457	2925.5125
1890.96482	2911.8125
1894.09304	2907.5125
1897.21921	2894.5125
1900.34335	2898.5125
1903.46544	2905.0125
1906.58551	2906.8125
1909.70353	2895.7125
1912.81953	2904.1125
1915.93349	2898.1125
1919.04543	2890.5125
1922.15534	2906.4125
1925.26322	2890.3125
1928.36908	2910.9125
1931.47292	2898.4125
1934.57473	2889.7125
1937.67453	2889.5125
1940.77232	2882.5125
1943.86808	2871.4125
1946.96184	2862.1125
1950.05358	2849.9125
1953.14331	2857.9125
1956.23103	2841.5125
1959.31675	2830.2125
1962.40046	2824.2125
1965.48217	2803.2125
1968.56188	2788.8125
1971.63959	2796.0125
1974.7153	2782.9125
1977.78901	2788.2125
1980.86073	2771.4125
1983.93046	2763.4125
1986.99819	2750.7125
1990.06394	2738.6125
1993.1277	2731.7125
1996.18947	2714.2125
1999.24925	2704.6125
2002.30706	2700.6125
2005.36288	2682.2125
2008.41672	2677.7125
2011.46859	2677.0125
2014.51848	2670.6125
2017.56639	2658.0125
2020.61233	2654.1125
2023.6563	2647.6125
2026.6983	2632.7125
2029.73833	2634.7125
2032.7764	2624.7125
2035.8125	2636.5125
2038.84664	2624.4125
2041.87881	2637.2125
2044.90903	2630.3125
2047.93729	2636.6125
2050.96359	2665.1125
2053.98794	2670.5125
2057.01034	2685.2125
2060.03078	2706.1125
2063.04927	2733.3125
2066.06582	2760.4125
2069.08042	2765.1125
2072.09307	2790.3125
2075.10378	2821.9125
2078.11255	2860.6125
2081.11938	2887.5125
2084.12426	2904.2125
2087.12722	2919.3125
2090.12824	2942.9125
2093.12732	2958.2125
2096.12447	2956.9125
2099.11969	2969.6125
2102.11299	2971.7125
2105.10435	2952.8125
2108.09379	2940.6125
2111.08131	2933.8125
2114.0669	2905.4125
2117.05057	2897.3125
2120.03233	2886.5125
2123.01216	2854.1125
2125.99008	2826.5125
2128.96609	2825.4125
2131.94018	2793.5125
2134.91236	2772.2125
2137.88263	2749.7125
2140.851	2736.1125
2143.81746	2714.9125
2146.78201	2683.6125
2149.74466	2658.4125
2152.7054	2630.6125
2155.66425	2625.8125
2158.6212	2603.4125
2161.57625	2582.3125
2164.52941	2561.4125
2167.48067	2566.1125
2170.43004	2553.9125
2173.37752	2550.7125
2176.32311	2538.8125
2179.26681	2534.9125
2182.20863	2515.4125
2185.14856	2528.1125
2188.08661	2521.4125
2191.02278	2513.0125
2193.95707	2510.6125
2196.88948	2500.6125
2199.82001	2504.7125
2202.74867	2488.6125
2205.67545	2486.2125
2208.60037	2493.0125
2211.52341	2476.9125
2214.44458	2476.1125
2217.36388	2465.0125
2220.28132	2465.1125
2223.1969	2455.8125
2226.11061	2448.1125
2229.02246	2443.1125
2231.93245	2444.1125
2234.84058	2430.3125
2237.74686	2423.7125
2240.65128	2415.3125
2243.55385	2422.5125
2246.45456	2422.4125
2249.35343	2395.8125
2252.25044	2414.7125
2255.14561	2418.6125
2258.03893	2406.0125
2260.93041	2402.4125
2263.82004	2402.5125
2266.70783	2403.9125
2269.59378	2389.7125
2272.4779	2369.0125
2275.36017	2385.5125
2278.24061	2371.0125
2281.11922	2362.3125
2283.996	2370.6125
2286.87094	2353.5125
2289.74405	2357.4125
2292.61534	2341.1125
2295.4848	2330.1125
2298.35243	2343.8125
2301.21824	2335.3125
2304.08223	2338.6125
2306.94439	2321.7125
2309.80474	2328.6125
2312.66327	2340.8125
2315.51999	2333.5125
2318.37489	2319.6125
2321.22797	2322.2125
2324.07925	2323.2125
2326.92871	2310.6125
2329.77637	2311.6125
2332.62222	2298.2125
2335.46626	2297.4125
2338.3085	2286.9125
2341.14893	2284.9125
2343.98756	2282.3125
2346.8244	2281.9125
2349.65943	2279.3125
2352.49267	2293.7125
2355.32411	2279.1125
2358.15376	2284.3125
2360.98161	2292.8125
2363.80768	2292.8125
2366.63195	2298.7125
2369.45444	2305.4125
2372.27514	2296.0125
2375.09405	2294.5125
2377.91118	2295.7125
2380.72652	2283.4125
2383.54009	2265.2125
2386.35187	2265.7125
2389.16188	2261.7125
2391.97011	2242.4125
2394.77657	2235.6125
2397.58125	2233.8125
2400.38416	2225.9125
2403.18529	2220.8125
2405.98466	2213.5125
2408.78226	2203.0125
2411.57809	2195.4125
2414.37216	2204.9125
2417.16446	2203.2125
2419.955	2194.7125
2422.74378	2191.6125
2425.5308	2199.5125
2428.31606	2203.1125
2431.09956	2197.0125
2433.88131	2177.2125
2436.6613	2185.2125
2439.43954	2180.4125
2442.21603	2175.1125
2444.99077	2177.3125
2447.76377	2191.7125
2450.53501	2183.5125
2453.30451	2188.7125
2456.07226	2179.9125
2458.83827	2172.3125
2461.60254	2170.9125
2464.36507	2175.5125
2467.12586	2164.5125
2469.88492	2162.0125
2472.64224	2146.2125
2475.39782	2162.8125
2478.15167	2165.0125
2480.90379	2167.3125
2483.65417	2169.0125
2486.40283	2164.9125
2489.14976	2175.6125
2491.89497	2177.8125
2494.63845	2165.7125
2497.3802	2163.0125
2500.12024	2172.1125
2502.85855	2159.7125
2505.59514	2158.2125
2508.33002	2152.6125
2511.06318	2139.5125
2513.79462	2117.1125
2516.52435	2108.1125
2519.25237	2100.4125
2521.97867	2104.5125
2524.70327	2100.4125
2527.42616	2082.2125
2530.14734	2081.5125
2532.86681	2070.1125
2535.58458	2070.1125
2538.30065	2065.1125
2541.01501	2069.4125
2543.72768	2070.3125
2546.43864	2060.2125
2549.14791	2059.1125
2551.85548	2057.6125
2554.56136	2061.0125
2557.26554	2058.3125
2559.96803	2058.5125
2562.66883	2054.3125
2565.36794	2047.6125
2568.06536	2040.7125
2570.7611	2039.2125
2573.45514	2035.3125
2576.14751	2035.7125
2578.83819	2024.1125
2581.52719	2018.6125
2584.21451	2012.0125
2586.90015	2016.6125
2589.58411	2013.2125
2592.2664	1997.3125
2594.94701	2005.0125
2597.62594	2000.6125
2600.30321	1983.6125
2602.9788	2004.1125
2605.65273	1976.8125
2608.32498	1981.3125
2610.99557	1980.0125
2613.66449	1980.8125
2616.33175	1984.8125
2618.99734	1974.8125
2621.66128	1977.2125
2624.32355	1974.6125
2626.98416	1975.4125
2629.64311	1959.3125
2632.30041	1954.2125
2634.95605	1953.6125
2637.61004	1955.0125
2640.26238	1944.2125
2642.91306	1953.6125
2645.56209	1941.0125
2648.20948	1950.8125
2650.85521	1937.1125
2653.4993	1943.7125
2656.14175	1943.3125
2658.78255	1943.1125
2661.42171	1934.3125
2664.05923	1943.6125
2666.6951	1948.7125
2669.32934	1951.4125
2671.96194	1951.2125
2674.59291	1938.6125
2677.22224	1956.2125
2679.84993	1952.6125
2682.476	1955.4125
2685.10043	1946.6125
2687.72324	1940.5125
2690.34441	1951.0125
2692.96396	1949.7125
2695.58188	1953.1125
2698.19818	1948.6125
2700.81285	1930.2125
2703.4259	1938.6125
2706.03733	1944.7125
2708.64714	1945.3125
2711.25533	1950.1125
2713.86191	1947.3125
2716.46687	1945.8125
2719.07021	1945.3125
2721.67194	1949.5125
2724.27206	1946.5125
2726.87057	1956.6125
2729.46747	1937.4125
2732.06276	1960.0125
2734.65644	1956.2125
2737.24852	1943.6125
2739.83899	1942.5125
2742.42786	1940.2125
2745.01513	1920.9125
2747.60079	1913.8125
2750.18486	1922.6125
2752.76733	1922.2125
2755.3482	1917.6125
2757.92747	1912.9125
2760.50515	1911.3125
2763.08123	1912.1125
2765.65573	1895.6125
2768.22863	1906.2125
2770.79994	1893.8125
2773.36967	1888.9125
2775.9378	1887.2125
2778.50435	1882.1125
2781.06932	1878.4125
2783.6327	1889.1125
2786.1945	1872.8125
2788.75471	1874.5125
2791.31335	1864.6125
2793.87041	1864.0125
2796.42589	1862.9125
2798.97979	1859.3125
2801.53212	1850.8125
2804.08288	1853.9125
2806.63206	1849.4125
2809.17967	1844.1125
2811.72571	1835.6125
2814.27018	1835.9125
2816.81308	1830.9125
2819.35442	1830.1125
2821.89419	1828.4125
2824.43239	1835.0125
2826.96904	1841.1125
2829.50412	1832.9125
2832.03763	1827.5125
2834.56959	1834.7125
2837.1	1830.4125
2839.62884	1834.2125
2842.15613	1830.3125
2844.68186	1837.5125
2847.20604	1844.9125
2849.72867	1856.1125
2852.24974	1851.0125
2854.76927	1857.4125
2857.28724	1863.2125
2859.80367	1863.6125
2862.31855	1856.5125
2864.83189	1866.4125
2867.34368	1867.9125
2869.85393	1867.3125
2872.36264	1867.4125
2874.8698	1870.4125
2877.37543	1867.5125
2879.87952	1875.5125
2882.38207	1874.4125
2884.88308	1867.5125
2887.38256	1859.0125
2889.88051	1874.0125
2892.37692	1874.2125
2894.8718	1882.5125
2897.36515	1882.8125
2899.85698	1893.3125
2902.34727	1904.7125
2904.83604	1900.1125
2907.32328	1919.3125
2909.809	1937.0125
2912.29319	1938.0125
2914.77587	1943.1125
2917.25702	1965.0125
2919.73665	1964.5125
2922.21476	1965.9125
2924.69136	1969.9125
2927.16644	1966.6125
2929.64	1963.5125
2932.11205	1964.0125
2934.58258	1959.3125
2937.05161	1950.7125
2939.51912	1948.7125
2941.98513	1947.8125
2944.44962	1934.5125
2946.91261	1921.5125
2949.37409	1916.5125
2951.83407	1886.9125
2954.29254	1875.7125
2956.74951	1874.3125
2959.20498	1870.2125
2961.65895	1861.2125
2964.11142	1857.6125
2966.56239	1847.8125
2969.01186	1805.7125
2971.45984	1830.3125
2973.90632	1832.2125
2976.35131	1822.4125
2978.7948	1818.3125
2981.23681	1810.4125
2983.67732	1806.1125
2986.11635	1797.1125
2988.55388	1795.9125
2990.98993	1797.2125
2993.4245	1786.8125
2995.85758	1789.9125
2998.28917	1792.3125
3000.71928	1778.3125
3003.14791	1776.8125
3005.57506	1777.2125
3008.00073	1775.4125
3010.42493	1767.4125
3012.84764	1777.3125
3015.26888	1776.2125
3017.68865	1772.0125
3020.10694	1762.2125
3022.52376	1774.0125
3024.9391	1751.4125
3027.35298	1756.4125
3029.76539	1757.7125
3032.17632	1767.0125
3034.5858	1760.0125
3036.9938	1770.0125
3039.40034	1753.7125
3041.80542	1767.3125
3044.20903	1748.2125
3046.61118	1753.3125
3049.01187	1746.8125
3051.4111	1748.5125
3053.80888	1746.5125
3056.20519	1756.6125
3058.60005	1750.3125
3060.99345	1754.5125
3063.3854	1740.2125
3065.7759	1740.3125
3068.16494	1749.6125
3070.55254	1759.0125
3072.93868	1744.0125
3075.32338	1745.8125
3077.70662	1740.0125
3080.08842	1745.4125
3082.46878	1743.1125
3084.84769	1734.3125
3087.22515	1746.9125
3089.60118	1742.5125
3091.97576	1751.3125
3094.3489	1751.6125
3096.72061	1755.0125
3099.09087	1766.9125
3101.4597	1766.9125
3103.82709	1772.2125
3106.19305	1779.3125
3108.55757	1776.3125
3110.92066	1773.9125
3113.28232	1786.3125
3115.64255	1784.6125
3118.00134	1790.3125
3120.35871	1789.3125
3122.71466	1788.5125
3125.06917	1793.4125
3127.42226	1800.7125
3129.77393	1806.7125
3132.12417	1804.2125
3134.47299	1813.4125
3136.82039	1821.4125
3139.16636	1824.7125
3141.51092	1822.6125
3143.85406	1828.7125
3146.19579	1846.9125
3148.53609	1855.3125
3150.87499	1862.2125
3153.21246	1871.4125
3155.54853	1870.6125
3157.88318	1872.9125
3160.21642	1890.1125
3162.54826	1881.7125
3164.87868	1895.5125
3167.2077	1911.1125
3169.5353	1916.9125
3171.86151	1917.4125
3174.18631	1921.4125
3176.5097	1928.7125
3178.83169	1924.8125
3181.15228	1926.9125
3183.47147	1923.5125
3185.78926	1928.2125
3188.10565	1930.8125
3190.42065	1935.2125
3192.73424	1943.7125
3195.04645	1954.3125
3197.35725	1952.5125
3199.66667	1960.0125
3201.97469	1956.7125
3204.28132	1963.4125
3206.58656	1966.7125
3208.8904	1970.5125
3211.19287	1974.2125
3213.49394	1986.1125
3215.79363	1993.0125
3218.09193	1999.2125
3220.38884	1986.2125
3222.68438	1996.2125
3224.97853	2013.5125
3227.2713	2014.8125
3229.56269	2004.6125
3231.8527	2014.6125
3234.14133	2013.5125
3236.42858	2009.0125
3238.71446	1996.7125
3240.99896	2005.2125
3243.28209	1991.3125
3245.56384	1998.2125
3247.84423	1988.9125
3250.12324	1996.7125
3252.40088	1996.9125
3254.67715	1989.5125
3256.95205	1992.3125
3259.22558	2001.7125
3261.49775	2008.6125
3263.76855	2005.5125
3266.03799	1988.3125
3268.30606	1990.9125
3270.57277	1991.6125
3272.83812	1991.8125
3275.10211	1995.5125
3277.36474	1983.3125
3279.62601	1981.8125
3281.88593	1968.4125
3284.14448	1983.0125
3286.40168	1977.9125
3288.65753	1975.1125
3290.91202	1976.8125
3293.16516	1973.3125
3295.41695	1979.0125
3297.66738	1966.4125
3299.91647	1970.8125
3302.16421	1950.4125
3304.4106	1954.3125
3306.65564	1936.7125
3308.89933	1926.4125
3311.14169	1928.4125
3313.38269	1910.6125
3315.62236	1889.3125
3317.86068	1885.9125
3320.09766	1873.1125
3322.3333	1860.6125
3324.5676	1864.7125
3326.80056	1834.5125
3329.03219	1821.7125
3331.26248	1.5125
3333.49143	-1.0875
3335.71905	0.8125
