#Wave		#Intensity
2001.248047	33404.476563
2000.278320	34056.171875
1999.308594	33939.960938
1998.338867	33846.339844
1997.369141	34218.714844
1996.398438	34069.968750
1995.428711	34169.203125
1994.458008	34120.671875
1993.487305	34004.562500
1992.516602	34043.679688
1991.545898	34097.796875
1990.574219	33989.253906
1989.603516	34155.933594
1988.631836	34022.402344
1987.660156	34056.476563
1986.688477	34068.027344
1985.715820	34077.078125
1984.744141	33941.148438
1983.771484	34280.093750
1982.798828	34229.128906
1981.826172	34118.222656
1980.853516	34097.277344
1979.880859	34211.191406
1978.907227	34687.117188
1977.933594	34401.449219
1976.959961	34103.402344
1975.986328	34584.085938
1975.012695	34360.960938
1974.039063	34654.324219
1973.064453	34231.718750
1972.089844	34347.933594
1971.115234	34419.226563
1970.140625	34492.984375
1969.166016	34314.968750
1968.190430	34348.093750
1967.215820	34381.183594
1966.240234	34414.304688
1965.264648	34447.429688
1964.289063	34480.550781
1963.312500	34513.707031
1962.336914	34546.832031
1961.360352	34481.050781
1960.383789	34584.519531
1959.407227	34389.367188
1958.430664	34373.402344
1957.454102	34205.714844
1956.476563	34358.890625
1955.499023	34728.332031
1954.521484	34339.410156
1953.543945	34502.421875
1952.566406	34528.691406
1951.587891	34204.605469
1950.610352	35184.878906
1949.631836	34830.984375
1948.653320	35100.546875
1947.674805	34801.414063
1946.696289	34795.320313
1945.716797	34891.000000
1944.737305	34783.140625
1943.758789	34836.601563
1942.779297	34508.000000
1941.798828	35119.570313
1940.819336	34934.867188
1939.838867	34544.425781
1938.859375	35130.875000
1937.878906	35223.871094
1936.898438	34674.976563
1935.916992	35025.699219
1934.936523	35237.570313
1933.955078	35060.496094
1932.974609	35066.734375
1931.993164	35535.992188
1931.010742	35103.964844
1930.029297	35318.105469
1929.047852	35215.402344
1928.065430	35006.339844
1927.083008	35151.113281
1926.100586	34979.234375
1925.118164	35245.136719
1924.135742	34969.449219
1923.152344	35346.503906
1922.168945	34969.554688
1921.185547	35331.644531
1920.202148	35224.148438
1919.218750	35220.441406
1918.235352	34949.984375
1917.250977	34677.148438
1916.266602	34841.437500
1915.282227	35168.597656
1914.297852	35258.695313
1913.313477	35025.476563
1912.328125	35428.917969
1911.343750	34983.589844
1910.358398	35325.230469
1909.373047	35240.125000
1908.387695	35307.914063
1907.401367	34927.007813
1906.416016	35211.726563
1905.429688	35185.835938
1904.443359	34832.253906
1903.457031	35602.136719
1902.470703	35393.921875
1901.483398	35148.839844
1900.497070	34884.144531
1899.509766	35175.894531
1898.522461	35233.718750
1897.535156	35503.156250
1896.546875	35551.054688
1895.559570	35163.511719
1894.571289	35432.816406
1893.583008	35741.371094
1892.594727	35486.765625
1891.606445	35325.664063
1890.618164	35140.039063
1889.628906	35251.828125
1888.639648	35427.457031
1887.650391	35303.324219
1886.661133	35542.738281
1885.671875	35536.496094
1884.682617	35034.292969
1883.692383	35447.917969
1882.702148	35503.054688
1881.711914	35585.164063
1880.721680	35181.437500
1879.731445	35332.261719
1878.740234	35738.105469
1877.749023	35756.351563
1876.757813	35696.128906
1875.766602	35557.484375
1874.775391	35254.671875
1873.784180	35576.847656
1872.791992	35553.449219
1871.799805	35593.746094
1870.807617	35697.707031
1869.815430	35652.253906
1868.823242	35391.355469
1867.830078	35566.285156
1866.837891	35601.644531
1865.844727	35389.832031
1864.851563	35515.730469
1863.858398	36373.007813
1862.864258	35823.644531
1861.871094	35964.070313
1860.876953	35991.976563
1859.882813	35743.644531
1858.888672	35624.929688
1857.894531	35672.429688
1856.899414	35639.281250
1855.905273	35840.652344
1854.910156	36212.914063
1853.915039	35732.812500
1852.919922	35990.210938
1851.923828	36206.015625
1850.928711	36019.042969
1849.932617	36117.636719
1848.936523	35594.046875
1847.940430	35902.460938
1846.944336	36035.164063
1845.947266	36138.558594
1844.951172	36185.835938
1843.954102	36564.617188
1842.957031	36263.281250
1841.959961	36503.015625
1840.962891	36252.957031
1839.964844	36585.171875
1838.966797	36459.390625
1837.969727	36521.156250
1836.970703	36629.156250
1835.972656	36608.105469
1834.974609	36806.097656
1833.975586	36534.382813
1832.976563	36576.609375
1831.978516	37025.046875
1830.978516	36305.933594
1829.979492	36367.625000
1828.980469	36908.246094
1827.980469	36629.496094
1826.980469	36632.769531
1825.980469	36772.113281
1824.980469	37030.453125
1823.979492	36642.566406
1822.979492	36446.675781
1821.978516	36500.960938
1820.977539	37171.886719
1819.976563	36891.046875
1818.975586	36906.386719
1817.973633	36759.148438
1816.972656	37063.210938
1815.970703	36687.980469
1814.968750	37467.289063
1813.966797	37087.265625
1812.963867	37083.156250
1811.961914	36778.476563
1810.958984	37319.707031
1809.956055	37024.781250
1808.953125	36952.843750
1807.950195	37314.511719
1806.946289	37179.578125
1805.943359	37361.890625
1804.939453	37316.566406
1803.935547	37566.562500
1802.930664	37184.824219
1801.926758	36970.175781
1800.922852	37469.281250
1799.917969	37648.921875
1798.913086	37388.351563
1797.908203	37347.906250
1796.903320	37919.109375
1795.897461	37876.171875
1794.891602	37833.234375
1793.886719	37877.300781
1792.880859	37556.558594
1791.874023	37789.058594
1790.868164	37796.882813
1789.862305	37792.628906
1788.855469	37933.222656
1787.848633	37704.468750
1786.841797	38207.015625
1785.833984	37843.171875
1784.827148	37942.640625
1783.819336	37894.937500
1782.812500	38158.347656
1781.804688	38416.835938
1780.795898	37804.964844
1779.788086	38318.914063
1778.779297	38601.335938
1777.771484	38418.628906
1776.762695	39151.417969
1775.753906	38600.160156
1774.744141	38537.957031
1773.735352	39010.292969
1772.725586	38668.789063
1771.715820	38654.738281
1770.706055	38859.679688
1769.696289	38645.898438
1768.686523	38732.890625
1767.675781	38420.589844
1766.666016	39279.519531
1765.655273	39306.242188
1764.644531	39054.097656
1763.632813	38941.441406
1762.622070	39213.320313
1761.610352	39564.382813
1760.598633	39149.015625
1759.586914	39920.281250
1758.575195	39320.085938
1757.563477	39505.210938
1756.550781	39649.464844
1755.538086	39467.246094
1754.525391	40237.765625
1753.512695	39758.000000
1752.500000	40168.367188
1751.486328	40283.585938
1750.473633	40185.339844
1749.459961	40377.234375
1748.446289	39869.093750
1747.432617	40513.949219
1746.417969	40676.917969
1745.404297	40413.371094
1744.389648	40490.062500
1743.375000	40509.246094
1742.360352	40456.585938
1741.344727	40573.925781
1740.330078	40844.421875
1739.314453	41244.062500
1738.298828	41301.371094
1737.283203	41105.062500
1736.267578	41418.324219
1735.251953	41241.187500
1734.235352	41948.859375
1733.218750	42106.402344
1732.202148	42151.539063
1731.185547	42454.769531
1730.168945	42542.835938
1729.151367	42473.191406
1728.133789	42351.015625
1727.117188	42751.910156
1726.098633	43100.125000
1725.081055	43555.652344
1724.063477	44070.687500
1723.044922	43938.785156
1722.026367	44260.289063
1721.007813	44273.925781
1719.989258	44337.644531
1718.970703	44713.753906
1717.951172	45313.867188
1716.931641	45072.210938
1715.912109	44947.429688
1714.892578	45537.644531
1713.873047	45205.523438
1712.853516	45485.777344
1711.833008	45084.707031
1710.812500	45729.246094
1709.791992	45592.566406
1708.771484	45396.417969
1707.750000	45764.449219
1706.729492	45851.531250
1705.708008	46100.378906
1704.686523	45980.398438
1703.665039	45715.367188
1702.642578	45811.902344
1701.621094	45946.445313
1700.598633	45890.753906
1699.576172	46213.003906
1698.553711	45418.214844
1697.531250	46353.433594
1696.507813	46340.464844
1695.485352	46439.132813
1694.461914	46492.640625
1693.438477	46586.492188
1692.415039	46753.898438
1691.390625	46769.343750
1690.367188	46602.054688
1689.342773	46954.429688
1688.318359	46903.402344
1687.293945	47286.429688
1686.269531	47396.609375
1685.244141	47248.316406
1684.218750	47339.496094
1683.194336	47347.687500
1682.168945	47566.777344
1681.142578	48153.023438
1680.117188	47900.488281
1679.090820	48320.675781
1678.064453	48172.386719
1677.038086	48767.574219
1676.011719	48465.390625
1674.985352	48745.531250
1673.958008	48613.828125
1672.931641	48709.300781
1671.904297	48707.750000
1670.876953	49060.957031
1669.848633	49243.785156
1668.821289	49350.886719
1667.792969	49514.683594
1666.764648	49305.003906
1665.736328	49350.597656
1664.708008	49611.164063
1663.679688	49668.492188
1662.650391	49463.648438
1661.621094	49483.199219
1660.591797	50062.269531
1659.562500	50133.632813
1658.533203	50485.808594
1657.502930	50075.707031
1656.472656	50007.832031
1655.442383	49699.382813
1654.412109	50336.742188
1653.381836	50462.199219
1652.351563	50297.636719
1651.320313	50286.339844
1650.289063	49959.253906
1649.257813	50273.179688
1648.226563	49983.902344
1647.194336	50420.191406
1646.163086	50119.207031
1645.130859	50494.097656
1644.098633	50850.015625
1643.066406	50655.031250
1642.033203	50478.937500
1641.000977	50380.550781
1639.967773	50747.992188
1638.934570	50992.992188
1637.901367	50765.222656
1636.868164	50939.589844
1635.833984	50958.742188
1634.800781	50905.019531
1633.766602	51455.261719
1632.732422	51361.523438
1631.697266	52000.753906
1630.663086	51831.789063
1629.627930	52287.535156
1628.593750	52181.968750
1627.558594	52646.871094
1626.522461	52726.695313
1625.487305	53066.960938
1624.451172	52712.621094
1623.416016	53268.582031
1622.379883	53270.828125
1621.343750	54018.773438
1620.306641	54027.914063
1619.270508	54794.207031
1618.233398	55143.042969
1617.196289	56243.949219
1616.159180	57021.148438
1615.122070	57905.816406
1614.083984	59417.839844
1613.046875	59650.792969
1612.008789	60134.167969
1610.970703	60909.968750
1609.932617	61315.707031
1608.893555	61220.550781
1607.855469	61296.207031
1606.816406	60370.691406
1605.777344	59546.062500
1604.738281	59056.105469
1603.698242	58087.050781
1602.659180	57377.800781
1601.619141	56769.292969
1600.579102	56789.554688
1599.539063	56295.839844
1598.499023	55891.058594
1597.458008	55059.042969
1596.417969	54727.003906
1595.376953	54630.871094
1594.335938	54504.429688
1593.294922	53701.246094
1592.252930	53617.011719
1591.210938	54200.007813
1590.169922	53870.792969
1589.127930	53278.175781
1588.084961	54101.074219
1587.042969	53618.187500
1586.000000	54028.175781
1584.958008	54575.503906
1583.915039	53983.277344
1582.872070	54427.914063
1581.828125	54231.875000
1580.785156	54941.781250
1579.741211	55344.093750
1578.697266	55082.808594
1577.653320	55519.859375
1576.609375	55786.878906
1575.564453	55579.160156
1574.520508	55762.320313
1573.475586	55631.429688
1572.430664	56235.410156
1571.384766	55974.277344
1570.339844	56094.464844
1569.293945	55661.453125
1568.249023	55760.738281
1567.202148	55088.632813
1566.156250	54472.519531
1565.110352	54311.832031
1564.063477	53939.890625
1563.017578	53965.085938
1561.970703	53732.609375
1560.922852	53261.167969
1559.875977	53462.816406
1558.829102	53385.992188
1557.781250	53401.972656
1556.733398	53271.839844
1555.685547	53468.695313
1554.636719	53491.605469
1553.588867	53431.054688
1552.540039	52825.906250
1551.491211	52939.277344
1550.442383	52654.128906
1549.393555	52577.550781
1548.344727	52461.628906
1547.294922	51972.953125
1546.245117	51975.242188
1545.195313	51602.554688
1544.145508	51801.617188
1543.094727	51646.589844
1542.044922	51341.242188
1540.994141	51325.128906
1539.943359	51440.832031
1538.892578	51376.148438
1537.840820	51380.832031
1536.790039	51477.968750
1535.738281	51105.953125
1534.686523	51325.554688
1533.634766	51120.019531
1532.583008	51653.656250
1531.530273	51672.128906
1530.477539	51494.343750
1529.424805	51302.769531
1528.372070	51374.375000
1527.319336	51053.656250
1526.265625	51171.421875
1525.212891	51187.644531
1524.159180	50765.644531
1523.105469	50772.707031
1522.051758	50973.425781
1520.997070	50639.281250
1519.942383	50743.152344
1518.888672	50552.035156
1517.833984	50513.039063
1516.778320	50925.535156
1515.723633	50301.500000
1514.667969	50331.644531
1513.612305	49894.417969
1512.556641	50150.199219
1511.500977	49883.460938
1510.445313	49609.914063
1509.388672	49184.625000
1508.332031	49237.921875
1507.275391	48812.847656
1506.218750	49328.363281
1505.162109	49144.808594
1504.104492	49237.144531
1503.047852	48803.175781
1501.990234	48794.433594
1500.931641	48636.371094
1499.874023	49445.355469
1498.816406	48839.410156
1497.757813	48775.558594
1496.699219	48886.195313
1495.640625	48792.511719
1494.582031	49362.070313
1493.522461	48850.746094
1492.462891	48901.636719
1491.403320	48851.589844
1490.343750	48801.558594
1489.284180	48510.800781
1488.224609	49008.718750
1487.164063	48807.410156
1486.103516	48915.531250
1485.042969	49149.625000
1483.982422	48952.976563
1482.920898	48795.328125
1481.860352	49608.660156
1480.798828	48807.597656
1479.737305	49268.109375
1478.675781	48945.726563
1477.613281	48893.472656
1476.550781	49063.160156
1475.489258	49445.511719
1474.426758	49336.015625
1473.363281	49039.050781
1472.300781	48918.230469
1471.237305	48724.304688
1470.174805	48829.835938
1469.111328	49565.980469
1468.046875	49059.050781
1466.983398	49294.656250
1465.919922	49541.589844
1464.855469	49820.402344
1463.791016	49014.718750
1462.726563	49825.351563
1461.661133	49992.132813
1460.596680	49549.632813
1459.531250	49771.152344
1458.465820	50168.218750
1457.400391	50729.332031
1456.334961	49833.277344
1455.268555	50070.535156
1454.202148	50366.964844
1453.135742	50298.671875
1452.069336	50934.437500
1451.002930	50333.003906
1449.935547	50809.097656
1448.869141	50385.523438
1447.801758	50692.949219
1446.734375	51177.820313
1445.666016	51143.593750
1444.598633	51154.886719
1443.530273	51459.667969
1442.461914	52080.531250
1441.393555	52496.476563
1440.325195	52361.980469
1439.256836	52898.218750
1438.187500	53568.378906
1437.118164	53383.753906
1436.048828	53585.484375
1434.979492	54050.679688
1433.909180	53661.625000
1432.839844	54231.105469
1431.769531	53701.375000
1430.699219	54277.449219
1429.627930	54440.203125
1428.557617	54378.218750
1427.486328	54559.039063
1426.416016	54494.785156
1425.343750	55192.671875
1424.272461	55232.636719
1423.201172	55299.796875
1422.128906	54967.937500
1421.056641	55363.773438
1419.984375	55990.613281
1418.912109	55776.621094
1417.839844	55748.464844
1416.766602	55226.554688
1415.693359	55470.250000
1414.620117	54747.066406
1413.546875	54859.457031
1412.473633	54682.101563
1411.399414	54676.785156
1410.325195	54454.269531
1409.250977	54148.136719
1408.176758	54611.085938
1407.102539	54544.726563
1406.027344	55328.480469
1404.952148	55759.316406
1403.876953	55927.824219
1402.801758	56491.710938
1401.726563	56167.503906
1400.650391	56839.566406
1399.574219	56829.332031
1398.498047	56742.324219
1397.421875	56242.199219
1396.345703	56033.437500
1395.268555	56217.433594
1394.191406	55801.152344
1393.114258	55861.039063
1392.037109	55422.414063
1390.959961	55295.160156
1389.881836	55494.894531
1388.804688	55115.175781
1387.726563	55258.519531
1386.647461	55904.351563
1385.569336	56184.937500
1384.491211	56215.363281
1383.412109	56198.476563
1382.333008	56704.042969
1381.253906	57119.367188
1380.173828	57082.058594
1379.094727	56610.371094
1378.014648	57126.742188
1376.934570	56754.207031
1375.854492	56300.820313
1374.773438	56418.871094
1373.693359	55862.261719
1372.612305	55663.335938
1371.531250	55441.996094
1370.450195	55065.656250
1369.369141	54572.605469
1368.287109	54185.320313
1367.205078	54440.609375
1366.123047	53790.718750
1365.041016	54346.871094
1363.958984	53490.683594
1362.875977	53353.089844
1361.793945	53417.523438
1360.710938	53569.441406
1359.626953	53203.070313
1358.543945	53303.378906
1357.460938	53076.226563
1356.376953	52860.363281
1355.292969	52512.308594
1354.208984	52464.730469
1353.124023	52742.109375
1352.040039	52613.835938
1350.955078	52803.718750
1349.870117	52323.828125
1348.785156	52126.273438
1347.700195	52287.027344
1346.614258	52275.347656
1345.528320	52632.968750
1344.442383	52395.210938
1343.356445	52587.113281
1342.270508	52358.394531
1341.183594	52422.746094
1340.096680	52404.332031
1339.009766	52499.949219
1337.922852	52479.289063
1336.835938	52903.386719
1335.748047	52983.210938
1334.661133	52426.277344
1333.573242	53285.726563
1332.484375	53267.164063
1331.396484	53201.718750
1330.307617	53332.753906
1329.219727	53465.972656
1328.130859	53451.843750
1327.041992	53346.238281
1325.952148	53396.832031
1324.863281	53621.382813
1323.773438	53486.804688
1322.683594	53180.582031
1321.593750	53233.390625
1320.502930	53399.847656
1319.413086	53354.539063
1318.322266	53674.648438
1317.231445	53295.144531
1316.140625	53147.414063
1315.048828	53209.066406
1313.958008	53177.175781
1312.866211	53448.042969
1311.774414	53164.617188
1310.682617	53735.796875
1309.589844	54084.281250
1308.498047	53943.250000
1307.405273	54291.566406
1306.312500	54788.738281
1305.218750	54721.019531
1304.125977	55524.683594
1303.032227	55836.890625
1301.939453	56828.929688
1300.845703	57438.484375
1299.750977	58460.968750
1298.657227	59734.035156
1297.562500	60493.714844
1296.467773	61506.203125
1295.373047	62121.003906
1294.278320	62298.394531
1293.183594	62211.671875
1292.087891	61772.250000
1290.992188	61321.894531
1289.896484	60904.964844
1288.800781	59565.816406
1287.704102	59552.812500
1286.608398	58504.738281
1285.511719	57492.500000
1284.415039	57672.628906
1283.317383	57434.015625
1282.220703	56338.347656
1281.123047	56624.875000
1280.025391	55937.125000
1278.927734	55601.589844
1277.830078	55724.304688
1276.731445	55112.324219
1275.633789	54907.644531
1274.535156	54981.750000
1273.436523	55020.437500
1272.336914	54791.558594
1271.238281	54206.816406
1270.138672	54066.574219
1269.039063	53758.421875
1267.939453	53552.019531
1266.839844	53988.570313
1265.739258	53415.535156
1264.638672	53721.652344
1263.538086	53440.328125
1262.437500	52805.882813
1261.336914	53604.144531
1260.235352	53499.527344
1259.134766	52832.316406
1258.033203	53135.984375
1256.930664	52623.468750
1255.829102	53529.082031
1254.726563	52979.195313
1253.625000	52857.156250
1252.522461	52607.332031
1251.418945	52469.976563
1250.316406	52555.191406
1249.212891	52279.117188
1248.110352	51899.625000
1247.006836	52317.394531
1245.902344	52076.730469
1244.798828	51913.191406
1243.694336	52126.050781
1242.589844	51749.121094
1241.485352	51763.925781
1240.380859	51833.714844
1239.276367	51534.007813
1238.170898	51575.222656
1237.065430	51519.687500
1235.959961	51723.539063
1234.854492	51643.824219
1233.748047	51660.808594
1232.642578	51664.609375
1231.536133	51841.917969
1230.429688	51814.933594
1229.322266	52126.078125
1228.215820	52149.539063
1227.108398	52607.558594
1226.000977	53214.632813
1224.893555	52739.832031
1223.786133	53258.910156
1222.677734	53358.890625
1221.569336	53373.316406
1220.460938	53591.628906
1219.352539	53502.972656
1218.244141	53074.648438
1217.134766	52997.070313
1216.025391	52895.421875
1214.916016	52572.574219
1213.806641	52648.425781
1212.697266	52404.562500
1211.586914	52832.882813
1210.476563	52440.226563
1209.366211	52645.160156
1208.255859	53073.195313
1207.145508	52661.015625
1206.034180	52590.191406
1204.922852	52547.824219
1203.811523	52678.199219
1202.700195	53110.199219
1201.587891	53216.375000
1200.476563	53270.066406
1199.364258	53498.523438
1198.251953	53608.933594
1197.138672	53378.589844
1196.026367	53471.699219
1194.913086	53564.890625
1193.799805	53658.082031
1192.686523	53751.273438
1191.573242	53844.464844
1190.458984	53937.738281
1189.344727	54150.410156
1188.230469	53929.007813
1187.116211	53302.109375
1186.001953	53715.343750
1184.886719	53154.097656
1183.772461	53310.046875
1182.657227	53147.812500
1181.541016	52811.359375
1180.425781	52742.929688
1179.309570	52953.273438
1178.193359	52771.621094
1177.077148	52622.683594
1175.960938	52539.097656
1174.844727	51989.843750
1173.727539	52456.859375
1172.610352	51749.019531
1171.493164	51619.964844
1170.375977	51671.445313
1169.257813	51972.933594
1168.139648	51856.949219
1167.022461	51571.480469
1165.903320	51260.039063
1164.785156	51600.476563
1163.666992	51651.894531
1162.547852	51774.953125
1161.428711	51103.246094
1160.309570	51291.488281
1159.189453	51251.746094
1158.070313	51574.441406
1156.950195	51634.468750
1155.830078	51301.812500
1154.709961	51188.343750
1153.588867	51424.062500
1152.468750	51605.484375
1151.347656	50848.175781
1150.226563	51183.519531
1149.104492	50924.972656
1147.983398	51561.335938
1146.861328	51101.355469
1145.739258	51756.941406
1144.617188	51983.531250
1143.495117	51521.550781
1142.372070	51849.832031
1141.250000	51896.640625
1140.126953	52635.863281
1139.003906	52567.839844
1137.879883	52396.015625
1136.756836	52286.968750
1135.632813	52037.410156
1134.508789	52304.628906
1133.384766	52325.339844
1132.259766	52300.660156
1131.135742	52334.324219
1130.010742	52510.550781
1128.885742	51891.867188
1127.759766	51865.113281
1126.634766	51723.933594
1125.508789	51574.167969
1124.382813	51899.289063
1123.256836	51879.019531
1122.130859	52044.304688
1121.003906	52099.507813
1119.877930	51725.500000
1118.750977	51379.652344
1117.624023	51562.148438
1116.496094	51141.007813
1115.369141	51607.957031
1114.241211	51701.957031
1113.113281	51558.933594
1111.985352	51818.757813
1110.856445	51708.066406
1109.728516	51291.656250
1108.599609	51482.492188
1107.470703	51363.304688
1106.340820	51506.707031
1105.211914	51675.875000
1104.082031	51221.121094
1102.952148	51730.109375
1101.822266	51576.566406
1100.692383	51816.539063
1099.561523	52058.574219
1098.431641	51819.078125
1097.300781	51708.601563
1096.169922	51469.253906
1095.038086	51640.277344
1093.907227	51523.445313
1092.775391	51593.468750
1091.643555	51423.007813
1090.511719	50967.121094
1089.378906	51318.343750
1088.246094	51100.816406
1087.114258	51290.980469
1085.980469	51187.214844
1084.847656	51227.167969
1083.714844	51204.925781
1082.581055	50678.902344
1081.447266	50802.511719
1080.313477	50986.082031
1079.179688	51083.875000
1078.044922	51258.750000
1076.910156	51472.113281
1075.775391	51299.937500
1074.640625	51322.660156
1073.505859	51518.757813
1072.370117	51943.792969
1071.234375	51720.292969
1070.098633	51719.375000
1068.962891	52007.230469
1067.826172	52468.210938
1066.690430	52514.195313
1065.553711	52365.609375
1064.416992	52715.113281
1063.279297	52284.441406
1062.142578	52422.292969
1061.004883	52615.636719
1059.867188	52437.253906
1058.729492	52310.187500
1057.590820	52377.464844
1056.453125	52504.488281
1055.314453	52050.910156
1054.175781	51941.070313
1053.037109	52311.328125
1051.897461	52190.808594
1050.757813	52157.777344
1049.618164	52062.914063
1048.478516	51684.527344
1047.338867	52011.843750
1046.199219	51699.667969
1045.058594	52201.589844
1043.917969	51719.050781
1042.777344	51662.703125
1041.635742	51672.390625
1040.495117	51841.769531
1039.353516	51755.617188
1038.211914	51460.898438
1037.069336	51587.656250
1035.927734	51167.539063
1034.785156	51160.273438
1033.642578	51080.695313
1032.500000	51194.660156
1031.357422	51047.062500
1030.213867	51297.035156
1029.071289	51636.179688
1027.927734	51312.199219
1026.783203	51547.109375
1025.639648	51314.601563
1024.495117	51659.855469
1023.351563	50597.148438
1022.207031	51095.261719
1021.061523	50839.648438
1019.916992	51528.535156
1018.771484	51016.187500
1017.625977	51337.765625
1016.480469	51273.187500
1015.334961	51925.425781
1014.188477	51540.589844
1013.041992	51541.718750
1011.895508	51010.843750
1010.749023	51349.007813
1009.602539	51460.343750
1008.455078	51181.851563
1007.307617	51324.937500
1006.160156	51336.679688
1005.012695	51496.621094
1003.864258	51459.636719
1002.716797	52250.179688
1001.568359	52471.222656
1000.419922	51721.101563
999.270508	52824.210938
998.122070	52755.281250
996.972656	52732.894531
995.823242	52991.683594
994.673828	52766.343750
993.523438	52205.062500
992.373047	52425.769531
991.222656	52454.148438
990.072266	52408.593750
988.921875	52696.710938
987.771484	52710.238281
986.620117	52991.855469
985.468750	52942.003906
984.317383	52911.160156
983.165039	52378.187500
982.013672	52674.414063
980.861328	52978.964844
979.708984	53083.082031
978.555664	53351.601563
977.403320	53495.652344
976.250000	53089.597656
975.096680	53183.070313
973.943359	52924.687500
972.790039	52786.457031
971.635742	52721.984375
970.481445	52411.179688
969.327148	52363.636719
968.172852	51998.285156
967.018555	52117.074219
965.863281	52115.890625
964.708008	52615.363281
963.552734	51604.539063
962.397461	51559.285156
961.241211	51532.964844
960.084961	52139.371094
958.929688	52619.453125
957.772461	51868.003906
956.616211	52129.460938
955.458984	52014.828125
954.301758	52263.554688
953.144531	52071.246094
951.987305	52229.593750
950.830078	51869.441406
949.671875	52457.968750
948.513672	52330.800781
947.355469	52157.523438
946.196289	51877.339844
945.038086	51909.714844
943.878906	51560.488281
942.719727	52427.210938
941.560547	52042.378906
940.400391	52443.496094
939.241211	52241.074219
938.081055	52535.167969
936.919922	52743.285156
935.759766	52697.957031
934.599609	52640.082031
933.438477	52634.558594
932.277344	52911.554688
931.116211	53083.828125
929.954102	52858.554688
928.791992	52890.632813
927.630859	52803.496094
926.467773	52691.296875
925.305664	53189.550781
924.143555	53075.226563
922.980469	53130.210938
921.817383	52763.128906
920.654297	52738.765625
919.490234	53468.367188
918.327148	53076.363281
917.163086	53467.410156
915.999023	53762.292969
914.833984	53422.617188
913.669922	53936.488281
912.504883	54423.042969
911.339844	54327.468750
910.174805	54674.042969
909.008789	54486.714844
907.843750	54443.292969
906.677734	54973.062500
905.511719	55283.824219
904.345703	54838.152344
903.178711	54773.855469
902.011719	54186.812500
900.844727	54110.160156
899.677734	53696.257813
898.510742	53457.355469
897.342773	53524.476563
896.174805	53225.347656
895.006836	53153.093750
893.838867	53101.664063
892.670898	53052.332031
891.501953	53156.882813
890.333008	53250.996094
889.164063	53640.222656
887.994141	52959.066406
886.825195	52909.792969
885.655273	53078.656250
884.485352	53633.777344
883.315430	53625.929688
882.144531	53628.464844
880.973633	53595.710938
879.803711	53264.097656
878.631836	53735.656250
877.460938	53574.261719
876.289063	53703.324219
875.118164	53826.113281
873.945313	54143.765625
872.773438	54258.132813
871.601563	53781.718750
870.428711	54294.000000
869.255859	54290.164063
868.083008	54246.964844
866.910156	54098.148438
865.736328	54614.125000
864.562500	54827.617188
863.388672	55086.574219
862.214844	54999.792969
861.040039	55730.414063
859.866211	55862.847656
858.691406	55804.921875
857.516602	55488.496094
856.340820	55821.468750
855.166016	55195.042969
853.990234	55381.183594
852.814453	55507.316406
851.637695	54999.066406
850.461914	55639.617188
849.285156	55009.664063
848.108398	55470.308594
846.931641	55939.039063
845.754883	56537.644531
844.577148	55992.601563
843.399414	56551.765625
842.221680	56815.679688
841.043945	57067.121094
839.865234	57353.527344
838.687500	58433.703125
837.508789	59249.585938
836.329102	59286.003906
835.150391	60000.437500
833.970703	59682.296875
832.791992	59520.835938
831.611328	58920.710938
830.431641	58343.460938
829.251953	57420.511719
828.071289	57020.785156
826.890625	56372.160156
825.709961	55935.730469
824.528320	55320.460938
823.347656	55310.195313
822.166016	54763.136719
820.984375	54950.378906
819.801758	54598.894531
818.620117	54311.261719
817.437500	54393.660156
816.254883	54194.523438
815.072266	54147.484375
813.888672	54141.535156
812.706055	53848.082031
811.522461	53493.136719
810.338867	53848.613281
809.154297	54013.074219
807.970703	54187.730469
806.786133	53820.664063
805.601563	53703.996094
804.416992	53482.773438
803.231445	53692.246094
802.045898	53116.417969
800.861328	53981.816406
799.674805	53742.250000
798.489258	53648.253906
797.302734	52978.609375
796.117188	53400.953125
794.930664	53507.757813
793.743164	52852.839844
792.556641	53080.484375
791.369141	53117.691406
790.181641	53034.148438
788.994141	52969.046875
787.805664	52912.148438
786.618164	52986.164063
785.429688	52524.394531
784.241211	52473.738281
783.052734	52461.933594
781.863281	52157.878906
780.673828	52489.414063
779.484375	52308.042969
778.294922	52441.292969
777.105469	51865.847656
775.915039	51884.781250
774.724609	51585.242188
773.534180	51875.679688
772.343750	52047.648438
771.152344	51991.035156
769.960938	51948.718750
768.769531	52332.683594
767.578125	51917.148438
766.385742	52035.925781
765.194336	52513.417969
764.001953	52658.531250
762.808594	52493.867188
761.616211	52897.656250
760.422852	53219.820313
759.230469	53383.015625
758.037109	53428.046875
756.842773	53275.593750
755.649414	54002.476563
754.455078	53620.015625
753.260742	54248.894531
752.066406	53984.507813
750.871094	53742.593750
749.676758	53777.316406
748.481445	53690.039063
747.286133	53464.566406
746.089844	52907.902344
744.894531	52847.242188
743.698242	52936.941406
742.501953	52758.484375
741.304688	52194.238281
740.108398	52539.835938
738.911133	52294.554688
737.713867	52660.296875
736.516602	52153.296875
735.319336	51883.871094
734.121094	52030.394531
732.922852	51856.410156
731.724609	51650.042969
730.526367	51901.945313
729.327148	51796.996094
728.127930	51623.171875
726.928711	51489.941406
725.729492	51772.066406
724.530273	51490.984375
723.330078	51448.976563
722.129883	51166.031250
720.929688	50958.093750
719.728516	51671.160156
718.528320	51007.882813
717.327148	51198.664063
716.125977	51156.742188
714.923828	51675.070313
713.722656	51764.507813
712.520508	51946.910156
711.318359	51377.292969
710.116211	51585.964844
708.913086	51406.601563
707.710938	51261.648438
706.507813	51625.750000
705.304688	51684.773438
704.100586	51735.691406
702.897461	51843.117188
701.693359	52150.316406
700.489258	52197.078125
699.284180	52330.574219
698.080078	52304.660156
696.875000	52442.117188
695.669922	52706.562500
694.464844	52985.015625
693.258789	53132.339844
692.053711	53243.328125
690.847656	53749.210938
689.641602	53698.871094
688.434570	54097.718750
687.228516	54091.636719
686.021484	53958.703125
684.814453	53751.332031
683.607422	53219.992188
682.399414	53270.410156
681.191406	52904.335938
679.983398	52272.863281
678.775391	52323.425781
677.567383	52410.160156
676.358398	51978.160156
675.149414	51940.296875
673.940430	52336.542969
672.730469	52240.347656
671.521484	52222.539063
670.311523	52267.000000
669.101563	52178.902344
667.890625	52245.437500
666.680664	51972.683594
665.469727	52179.722656
664.258789	51816.777344
663.047852	52005.703125
661.835938	51871.601563
660.625000	51635.261719
659.413086	51467.187500
658.201172	51545.761719
656.988281	51544.128906
655.776367	51784.988281
654.563477	51635.031250
653.350586	51493.144531
652.136719	51429.421875
650.923828	51505.898438
649.709961	51612.378906
648.496094	51318.453125
647.282227	51803.195313
646.067383	51303.230469
644.852539	51527.699219
643.637695	51846.097656
642.422852	51450.394531
641.208008	51708.695313
639.992188	51738.988281
638.776367	51845.226563
637.560547	51807.531250
636.344727	51851.765625
635.127930	52057.796875
633.911133	52261.753906
632.694336	52315.859375
631.477539	52190.250000
630.259766	51920.957031
629.042969	51629.812500
627.825195	51508.386719
626.606445	51949.613281
625.388672	51626.703125
624.169922	51311.890625
622.951172	51667.156250
621.732422	51410.261719
620.513672	51593.960938
619.293945	51508.554688
618.074219	51548.699219
616.854492	51511.140625
615.634766	51308.281250
614.414063	51308.609375
613.193359	51462.238281
611.972656	51247.550781
610.751953	51604.128906
609.530273	51278.058594
608.309570	51471.359375
607.087891	51453.742188
605.866211	51229.300781
604.643555	51939.460938
603.420898	51502.296875
602.198242	52092.878906
600.975586	51484.945313
599.752930	51614.355469
598.529297	51551.027344
597.305664	51958.425781
596.082031	52574.171875
594.858398	52228.769531
593.633789	52147.500000
592.410156	52568.363281
591.185547	53258.921875
589.959961	53044.578125
588.735352	52713.285156
587.509766	53306.250000
586.284180	53468.730469
585.058594	53760.000000
583.832031	54166.117188
582.606445	54262.945313
581.379883	54773.816406
580.153320	55268.644531
578.925781	55589.000000
577.699219	55818.144531
576.471680	55581.957031
575.244141	55666.515625
574.015625	56613.894531
572.788086	56001.738281
571.559570	56289.925781
570.331055	56051.878906
569.101563	55450.050781
567.873047	55061.984375
566.643555	54579.171875
565.414063	54501.707031
564.184570	53821.570313
562.954102	53574.363281
561.724609	53773.664063
560.494141	53107.867188
559.263672	52329.769531
558.032227	52351.507813
556.800781	52535.089844
555.570313	51972.636719
554.337891	51708.324219
553.106445	51676.890625
551.874023	51515.292969
550.642578	51558.835938
549.409180	51572.789063
548.176758	51507.882813
546.944336	51104.011719
545.710938	50639.210938
544.477539	51380.281250
543.243164	50811.199219
542.009766	51530.292969
540.775391	51109.066406
539.541016	51073.847656
538.306641	50719.781250
537.071289	50485.886719
535.836914	50934.800781
534.601563	50982.250000
533.366211	50805.468750
532.129883	50866.683594
530.894531	51018.308594
529.658203	51079.457031
528.421875	50824.167969
527.184570	50873.535156
525.948242	51193.984375
524.710938	51476.996094
523.473633	51251.269531
522.235352	51561.648438
520.998047	51072.937500
519.759766	50900.402344
518.521484	51244.019531
517.283203	51522.761719
516.043945	52097.593750
514.804688	52228.972656
513.565430	52111.273438
512.326172	52638.609375
511.085938	51930.882813
509.846680	51664.359375
508.606445	51840.750000
507.366211	51654.660156
506.125000	51783.972656
504.883789	51545.082031
503.643555	51717.437500
502.401367	51605.882813
501.160156	51239.941406
499.917969	51222.441406
498.675781	51128.644531
497.433594	51606.046875
496.191406	51647.148438
494.948242	50927.625000
493.705078	51084.175781
492.461914	51240.664063
491.218750	51039.476563
489.975586	51047.417969
488.731445	50908.847656
487.487305	51082.820313
486.242188	51750.761719
484.998047	51235.328125
483.752930	51549.675781
482.507813	51389.660156
481.262695	51483.363281
480.016602	51467.781250
478.771484	51715.519531
477.525391	51684.296875
476.278320	51738.867188
475.032227	51619.921875
473.785156	51978.527344
472.538086	51512.714844
471.291016	51941.339844
470.043945	51756.207031
468.795898	52005.445313
467.547852	51635.382813
466.299805	52160.988281
465.051758	52178.375000
463.802734	52440.957031
462.553711	52763.753906
461.304688	52356.921875
460.055664	53253.375000
458.805664	53319.140625
457.555664	53612.351563
456.305664	53423.371094
455.055664	53714.503906
453.804688	53731.542969
452.553711	54356.660156
451.302734	54344.429688
450.051758	54936.171875
448.799805	55310.222656
447.548828	55544.355469
446.296875	55997.718750
445.043945	56305.250000
443.791992	56612.542969
442.539063	56920.074219
441.286133	57227.605469
440.033203	56650.550781
438.779297	56480.847656
437.526367	55270.304688
436.272461	54083.476563
435.017578	53695.394531
433.763672	53572.863281
432.508789	53134.660156
431.253906	52816.687500
429.999023	52522.062500
428.744141	52184.964844
427.488281	52337.648438
426.232422	52333.535156
424.976563	51725.796875
423.720703	52017.746094
422.463867	51976.945313
421.207031	51597.773438
419.950195	51761.984375
418.693359	51939.656250
417.435547	51593.554688
416.177734	51595.363281
414.919922	51693.757813
413.662109	51610.562500
412.403320	51867.253906
411.144531	51853.554688
409.885742	51627.527344
408.626953	51465.269531
407.367188	51893.515625
406.107422	51787.210938
404.847656	51767.742188
403.587891	51933.410156
402.327148	52041.167969
401.067383	51769.121094
