#Wave		#Intensity
2001.248047	36850.949219
2000.278320	36996.328125
1999.308594	37365.785156
1998.338867	37379.304688
1997.369141	37395.328125
1996.398438	37351.226563
1995.428711	37853.085938
1994.458008	37320.660156
1993.487305	36998.707031
1992.516602	37465.316406
1991.545898	37551.371094
1990.574219	36879.238281
1989.603516	37855.972656
1988.631836	37284.074219
1987.660156	37737.714844
1986.688477	37398.570313
1985.715820	37452.035156
1984.744141	37295.523438
1983.771484	37473.937500
1982.798828	37874.671875
1981.826172	37658.207031
1980.853516	37336.906250
1979.880859	37630.062500
1978.907227	37558.566406
1977.933594	37474.613281
1976.959961	37378.207031
1975.986328	37830.867188
1975.012695	37489.902344
1974.039063	37720.347656
1973.064453	37958.195313
1972.089844	37363.011719
1971.115234	37747.945313
1970.140625	37803.671875
1969.166016	37527.867188
1968.190430	37735.628906
1967.215820	37534.679688
1966.240234	37979.031250
1965.264648	37768.144531
1964.289063	37622.078125
1963.312500	37540.800781
1962.336914	37827.996094
1961.360352	37953.300781
1960.383789	37521.105469
1959.407227	38233.632813
1958.430664	37804.027344
1957.454102	37638.222656
1956.476563	37900.222656
1955.499023	37555.433594
1954.521484	38063.468750
1953.543945	37994.671875
1952.566406	37983.050781
1951.587891	37949.074219
1950.610352	37669.164063
1949.631836	37940.761719
1948.653320	37660.945313
1947.674805	37954.792969
1946.696289	37709.828125
1945.716797	38068.097656
1944.737305	38011.800781
1943.758789	37794.242188
1942.779297	37926.550781
1941.798828	37761.164063
1940.819336	38317.500000
1939.838867	38060.359375
1938.859375	38296.644531
1937.878906	38198.230469
1936.898438	38060.195313
1935.916992	38065.921875
1934.936523	38262.394531
1933.955078	38060.019531
1932.974609	38310.906250
1931.993164	38205.152344
1931.010742	38238.070313
1930.029297	38704.128906
1929.047852	37888.109375
1928.065430	38757.375000
1927.083008	38221.175781
1926.100586	38338.152344
1925.118164	38361.109375
1924.135742	38351.914063
1923.152344	37816.160156
1922.168945	38686.984375
1921.185547	38225.492188
1920.202148	38337.390625
1919.218750	38113.277344
1918.235352	38464.742188
1917.250977	38248.089844
1916.266602	38646.316406
1915.282227	38437.109375
1914.297852	38489.609375
1913.313477	38406.359375
1912.328125	38742.589844
1911.343750	38570.511719
1910.358398	38896.726563
1909.373047	38685.222656
1908.387695	38587.207031
1907.401367	38900.917969
1906.416016	38866.984375
1905.429688	38722.164063
1904.443359	38907.554688
1903.457031	39028.832031
1902.470703	39236.269531
1901.483398	38980.664063
1900.497070	38456.765625
1899.509766	38582.953125
1898.522461	38935.535156
1897.535156	39204.324219
1896.546875	38830.835938
1895.559570	39362.765625
1894.571289	39023.812500
1893.583008	39198.941406
1892.594727	39189.605469
1891.606445	38912.312500
1890.618164	39205.343750
1889.628906	38947.800781
1888.639648	39245.632813
1887.650391	39516.335938
1886.661133	39253.960938
1885.671875	39362.484375
1884.682617	39451.328125
1883.692383	39449.312500
1882.702148	39297.574219
1881.711914	39450.183594
1880.721680	39676.339844
1879.731445	39711.074219
1878.740234	39571.656250
1877.749023	39493.589844
1876.757813	39915.722656
1875.766602	39724.855469
1874.775391	39840.425781
1873.784180	39860.382813
1872.791992	39583.867188
1871.799805	39870.875000
1870.807617	39832.027344
1869.815430	39864.210938
1868.823242	40300.363281
1867.830078	39815.929688
1866.837891	40220.117188
1865.844727	40210.601563
1864.851563	40333.207031
1863.858398	39800.175781
1862.864258	40367.945313
1861.871094	40333.949219
1860.876953	39960.117188
1859.882813	40302.656250
1858.888672	40256.464844
1857.894531	40220.062500
1856.899414	40730.953125
1855.905273	40135.078125
1854.910156	40528.570313
1853.915039	40482.371094
1852.919922	40802.414063
1851.923828	40793.773438
1850.928711	40785.144531
1849.932617	40776.503906
1848.936523	40767.863281
1847.940430	40759.222656
1846.944336	40793.515625
1845.947266	40742.445313
1844.951172	40693.828125
1843.954102	40920.683594
1842.957031	41125.519531
1841.959961	41505.730469
1840.962891	41617.808594
1839.964844	41352.277344
1838.966797	41235.402344
1837.969727	41359.636719
1836.970703	41418.093750
1835.972656	41710.210938
1834.974609	41403.515625
1833.975586	41306.191406
1832.976563	41773.339844
1831.978516	41719.769531
1830.978516	41826.730469
1829.979492	41792.617188
1828.980469	41775.531250
1827.980469	41962.640625
1826.980469	41947.957031
1825.980469	41809.355469
1824.980469	41993.921875
1823.979492	42137.128906
1822.979492	41828.554688
1821.978516	42107.714844
1820.977539	42068.738281
1819.976563	42403.585938
1818.975586	42323.304688
1817.973633	41944.593750
1816.972656	42313.246094
1815.970703	42230.593750
1814.968750	41946.675781
1813.966797	42429.093750
1812.963867	42385.253906
1811.961914	42372.933594
1810.958984	41846.832031
1809.956055	42384.652344
1808.953125	42406.253906
1807.950195	42800.871094
1806.946289	42759.417969
1805.943359	42599.335938
1804.939453	42562.773438
1803.935547	42235.757813
1802.930664	43264.113281
1801.926758	43234.707031
1800.922852	42735.976563
1799.917969	42771.933594
1798.913086	42807.886719
1797.908203	42843.843750
1796.903320	42879.796875
1795.897461	42915.789063
1794.891602	42951.777344
1793.886719	43490.273438
1792.880859	43987.511719
1791.874023	43735.792969
1790.868164	43583.179688
1789.862305	43324.375000
1788.855469	43584.699219
1787.848633	43820.792969
1786.841797	43595.863281
1785.833984	43863.238281
1784.827148	43894.093750
1783.819336	44115.488281
1782.812500	43692.910156
1781.804688	44131.261719
1780.795898	44277.757813
1779.788086	44002.398438
1778.779297	44098.253906
1777.771484	44702.468750
1776.762695	44586.167969
1775.753906	44925.132813
1774.744141	44305.527344
1773.735352	44403.644531
1772.725586	44858.007813
1771.715820	45136.507813
1770.706055	44842.164063
1769.696289	44913.644531
1768.686523	45011.558594
1767.675781	45056.523438
1766.666016	45113.492188
1765.655273	45052.625000
1764.644531	45261.019531
1763.632813	45789.003906
1762.622070	45432.468750
1761.610352	45631.066406
1760.598633	45887.250000
1759.586914	45581.316406
1758.575195	46108.765625
1757.563477	46182.250000
1756.550781	46466.953125
1755.538086	46389.136719
1754.525391	46352.140625
1753.512695	46451.914063
1752.500000	46539.656250
1751.486328	46732.894531
1750.473633	47007.593750
1749.459961	46591.695313
1748.446289	46664.960938
1747.432617	47035.390625
1746.417969	47036.656250
1745.404297	47023.546875
1744.389648	47434.433594
1743.375000	47725.421875
1742.360352	47329.054688
1741.344727	47155.488281
1740.330078	47582.804688
1739.314453	48196.652344
1738.298828	47747.832031
1737.283203	48502.582031
1736.267578	48572.941406
1735.251953	48373.015625
1734.235352	48845.089844
1733.218750	49056.394531
1732.202148	49607.058594
1731.185547	49760.796875
1730.168945	50048.289063
1729.151367	50192.332031
1728.133789	49892.031250
1727.117188	50320.246094
1726.098633	50882.027344
1725.081055	51223.968750
1724.063477	51568.171875
1723.044922	51835.878906
1722.026367	52294.382813
1721.007813	51753.113281
1719.989258	52404.671875
1718.970703	52650.570313
1717.951172	53053.753906
1716.931641	53013.367188
1715.912109	53433.023438
1714.892578	53966.921875
1713.873047	53583.273438
1712.853516	53619.046875
1711.833008	53492.832031
1710.812500	53833.433594
1709.791992	53869.136719
1708.771484	53809.601563
1707.750000	53338.304688
1706.729492	53278.875000
1705.708008	53642.996094
1704.686523	53502.648438
1703.665039	53738.156250
1702.642578	53757.167969
1701.621094	53141.328125
1700.598633	53459.972656
1699.576172	53162.898438
1698.553711	53227.144531
1697.531250	53215.332031
1696.507813	53338.929688
1695.485352	53248.714844
1694.461914	52942.433594
1693.438477	52990.027344
1692.415039	52384.785156
1691.390625	52729.140625
1690.367188	53286.949219
1689.342773	53237.164063
1688.318359	52900.359375
1687.293945	52701.230469
1686.269531	53443.609375
1685.244141	53434.128906
1684.218750	53220.781250
1683.194336	53557.375000
1682.168945	53225.597656
1681.142578	53360.675781
1680.117188	53275.406250
1679.090820	53121.476563
1678.064453	53621.171875
1677.038086	53748.976563
1676.011719	53488.519531
1674.985352	53990.242188
1673.958008	53746.394531
1672.931641	53509.726563
1671.904297	53303.890625
1670.876953	53999.218750
1669.848633	54124.417969
1668.821289	53776.722656
1667.792969	53923.187500
1666.764648	54126.316406
1665.736328	54029.273438
1664.708008	53953.527344
1663.679688	54062.054688
1662.650391	54184.707031
1661.621094	54944.863281
1660.591797	53974.230469
1659.562500	54606.687500
1658.533203	54986.390625
1657.502930	55059.210938
1656.472656	55098.972656
1655.442383	55513.761719
1654.412109	55680.773438
1653.381836	54883.332031
1652.351563	54963.164063
1651.320313	55686.453125
1650.289063	55360.761719
1649.257813	55640.742188
1648.226563	55510.707031
1647.194336	55272.363281
1646.163086	55467.425781
1645.130859	55864.906250
1644.098633	55329.996094
1643.066406	56071.007813
1642.033203	56164.585938
1641.000977	56279.300781
1639.967773	55798.796875
1638.934570	56565.058594
1637.901367	56451.527344
1636.868164	56323.925781
1635.833984	56309.207031
1634.800781	57199.398438
1633.766602	56441.929688
1632.732422	56958.191406
1631.697266	57121.898438
1630.663086	57635.500000
1629.627930	57430.339844
1628.593750	57753.523438
1627.558594	57168.113281
1626.522461	58136.664063
1625.487305	58095.816406
1624.451172	58559.414063
1623.416016	58835.179688
1622.379883	58637.078125
1621.343750	59634.980469
1620.306641	60388.691406
1619.270508	60741.281250
1618.233398	62146.078125
1617.196289	63369.933594
1616.159180	65111.128906
1615.122070	66085.718750
1614.083984	67352.710938
1613.046875	69057.132813
1612.008789	69613.757813
1610.970703	70748.351563
1609.932617	69792.578125
1608.893555	69497.007813
1607.855469	68668.132813
1606.816406	67582.234375
1605.777344	66237.132813
1604.738281	64155.937500
1603.698242	63471.199219
1602.659180	62038.710938
1601.619141	60585.695313
1600.579102	59488.367188
1599.539063	59033.886719
1598.499023	58726.718750
1597.458008	57394.425781
1596.417969	57456.582031
1595.376953	57271.250000
1594.335938	56654.167969
1593.294922	56805.097656
1592.252930	55852.316406
1591.210938	55898.347656
1590.169922	55421.890625
1589.127930	55206.789063
1588.084961	55474.410156
1587.042969	54776.808594
1586.000000	54790.347656
1584.958008	54731.640625
1583.915039	54584.410156
1582.872070	55087.179688
1581.828125	54700.035156
1580.785156	54899.863281
1579.741211	55241.648438
1578.697266	55420.355469
1577.653320	55252.199219
1576.609375	55265.613281
1575.564453	55253.425781
1574.520508	55783.257813
1573.475586	55668.640625
1572.430664	55698.242188
1571.384766	56120.750000
1570.339844	55964.285156
1569.293945	55703.289063
1568.249023	55505.125000
1567.202148	54751.750000
1566.156250	54802.371094
1565.110352	54146.933594
1564.063477	54139.589844
1563.017578	53700.414063
1561.970703	53848.671875
1560.922852	53159.050781
1559.875977	52973.207031
1558.829102	53116.867188
1557.781250	53100.425781
1556.733398	52896.128906
1555.685547	53218.269531
1554.636719	52830.871094
1553.588867	52955.875000
1552.540039	53110.960938
1551.491211	53122.328125
1550.442383	52899.703125
1549.393555	53015.332031
1548.344727	52658.476563
1547.294922	52359.636719
1546.245117	52903.578125
1545.195313	52796.910156
1544.145508	52942.527344
1543.094727	52419.402344
1542.044922	52585.851563
1540.994141	52810.062500
1539.943359	52516.179688
1538.892578	52987.718750
1537.840820	52206.125000
1536.790039	52090.472656
1535.738281	51947.125000
1534.686523	51480.359375
1533.634766	51896.210938
1532.583008	51066.996094
1531.530273	51588.996094
1530.477539	50827.085938
1529.424805	50979.585938
1528.372070	50762.746094
1527.319336	50746.746094
1526.265625	50610.773438
1525.212891	50371.039063
1524.159180	50387.398438
1523.105469	50606.675781
1522.051758	50671.398438
1520.997070	50768.371094
1519.942383	50632.527344
1518.888672	50386.125000
1517.833984	50395.539063
1516.778320	50444.105469
1515.723633	50596.296875
1514.667969	50393.816406
1513.612305	50271.984375
1512.556641	50012.085938
1511.500977	50286.210938
1510.445313	50755.820313
1509.388672	50084.160156
1508.332031	50424.824219
1507.275391	50201.914063
1506.218750	50896.535156
1505.162109	50625.339844
1504.104492	50630.066406
1503.047852	50646.277344
1501.990234	51218.531250
1500.931641	50759.085938
1499.874023	50896.996094
1498.816406	50260.937500
1497.757813	50410.363281
1496.699219	50821.441406
1495.640625	50573.628906
1494.582031	50727.500000
1493.522461	50305.414063
1492.462891	50977.726563
1491.403320	50509.871094
1490.343750	50546.683594
1489.284180	50876.957031
1488.224609	50358.929688
1487.164063	50817.464844
1486.103516	50638.781250
1485.042969	50849.656250
1483.982422	50677.898438
1482.920898	51076.492188
1481.860352	50840.632813
1480.798828	50929.964844
1479.737305	51346.605469
1478.675781	51058.179688
1477.613281	51458.625000
1476.550781	50989.535156
1475.489258	50943.792969
1474.426758	51680.230469
1473.363281	51515.472656
1472.300781	51796.582031
1471.237305	51485.562500
1470.174805	51533.460938
1469.111328	51377.976563
1468.046875	51720.585938
1466.983398	52008.250000
1465.919922	52275.250000
1464.855469	51647.082031
1463.791016	51932.316406
1462.726563	52260.808594
1461.661133	52623.417969
1460.596680	52874.085938
1459.531250	52371.835938
1458.465820	52376.121094
1457.400391	52749.839844
1456.334961	52462.203125
1455.268555	52844.886719
1454.202148	53056.484375
1453.135742	52944.410156
1452.069336	53506.792969
1451.002930	53105.363281
1449.935547	53553.628906
1448.869141	53826.386719
1447.801758	53686.941406
1446.734375	53272.101563
1445.666016	54172.925781
1444.598633	54094.925781
1443.530273	54244.468750
1442.461914	54730.621094
1441.393555	54627.542969
1440.325195	54724.601563
1439.256836	54921.660156
1438.187500	55689.199219
1437.118164	55422.375000
1436.048828	56219.082031
1434.979492	56574.753906
1433.909180	56585.031250
1432.839844	56511.269531
1431.769531	56912.105469
1430.699219	57473.980469
1429.627930	57524.933594
1428.557617	57496.437500
1427.486328	57787.882813
1426.416016	57791.105469
1425.343750	57828.343750
1424.272461	57817.945313
1423.201172	57798.480469
1422.128906	57611.261719
1421.056641	57800.359375
1419.984375	56894.820313
1418.912109	57201.796875
1417.839844	57146.199219
1416.766602	56809.765625
1415.693359	57007.882813
1414.620117	56848.195313
1413.546875	56740.625000
1412.473633	56940.906250
1411.399414	56896.714844
1410.325195	56909.101563
1409.250977	57511.894531
1408.176758	57377.148438
1407.102539	57052.503906
1406.027344	57442.410156
1404.952148	57814.093750
1403.876953	58334.804688
1402.801758	57718.710938
1401.726563	57852.914063
1400.650391	57865.085938
1399.574219	57606.238281
1398.498047	58042.957031
1397.421875	57973.808594
1396.345703	58209.406250
1395.268555	57939.386719
1394.191406	58262.902344
1393.114258	58376.488281
1392.037109	57921.621094
1390.959961	58251.722656
1389.881836	58108.195313
1388.804688	58756.007813
1387.726563	58740.914063
1386.647461	58813.710938
1385.569336	59424.988281
1384.491211	59691.371094
1383.412109	60239.199219
1382.333008	59892.800781
1381.253906	60041.867188
1380.173828	60238.152344
1379.094727	60468.121094
1378.014648	60187.183594
1376.934570	60183.082031
1375.854492	60239.718750
1374.773438	60055.675781
1373.693359	59777.253906
1372.612305	59420.238281
1371.531250	59083.578125
1370.450195	58693.101563
1369.369141	58287.031250
1368.287109	58263.039063
1367.205078	57989.714844
1366.123047	57687.296875
1365.041016	57160.433594
1363.958984	56575.390625
1362.875977	56589.875000
1361.793945	56846.730469
1360.710938	56459.507813
1359.626953	55852.566406
1358.543945	55743.796875
1357.460938	56366.160156
1356.376953	55687.804688
1355.292969	55242.843750
1354.208984	55302.355469
1353.124023	55292.375000
1352.040039	54993.359375
1350.955078	54947.585938
1349.870117	55007.101563
1348.785156	54795.625000
1347.700195	54550.640625
1346.614258	55364.589844
1345.528320	54398.890625
1344.442383	55163.335938
1343.356445	54551.523438
1342.270508	54550.621094
1341.183594	54384.210938
1340.096680	55034.054688
1339.009766	54796.066406
1337.922852	54497.808594
1336.835938	54881.312500
1335.748047	54348.515625
1334.661133	54269.441406
1333.573242	54456.203125
1332.484375	54352.566406
1331.396484	54807.191406
1330.307617	54109.671875
1329.219727	54532.925781
1328.130859	54956.023438
1327.041992	54493.132813
1325.952148	54150.878906
1324.863281	54611.726563
1323.773438	54894.000000
1322.683594	54667.792969
1321.593750	54831.796875
1320.502930	55087.121094
1319.413086	54522.265625
1318.322266	54915.691406
1317.231445	54890.167969
1316.140625	54739.921875
1315.048828	54776.789063
1313.958008	54577.628906
1312.866211	54961.773438
1311.774414	54842.773438
1310.682617	54910.738281
1309.589844	54133.226563
1308.498047	54784.097656
1307.405273	54594.039063
1306.312500	55135.628906
1305.218750	54996.703125
1304.125977	55015.648438
1303.032227	55247.941406
1301.939453	55424.593750
1300.845703	55614.511719
1299.750977	55284.585938
1298.657227	55896.414063
1297.562500	56936.566406
1296.467773	57035.042969
1295.373047	57293.292969
1294.278320	56985.542969
1293.183594	57119.449219
1292.087891	57397.503906
1290.992188	57753.085938
1289.896484	57762.585938
1288.800781	57208.902344
1287.704102	56697.539063
1286.608398	56753.765625
1285.511719	56663.707031
1284.415039	56622.425781
1283.317383	56306.468750
1282.220703	56196.601563
1281.123047	56060.195313
1280.025391	55618.308594
1278.927734	55617.082031
1277.830078	55618.070313
1276.731445	55422.117188
1275.633789	54518.257813
1274.535156	54132.335938
1273.436523	54593.597656
1272.336914	53460.410156
1271.238281	54182.496094
1270.138672	53646.597656
1269.039063	53225.808594
1267.939453	52915.656250
1266.839844	52888.386719
1265.739258	53068.753906
1264.638672	52937.667969
1263.538086	52451.140625
1262.437500	52121.527344
1261.336914	51778.785156
1260.235352	51974.628906
1259.134766	51843.847656
1258.033203	51953.570313
1256.930664	51794.164063
1255.829102	51281.980469
1254.726563	51281.496094
1253.625000	51069.386719
1252.522461	51126.242188
1251.418945	50876.773438
1250.316406	51231.066406
1249.212891	50772.398438
1248.110352	51525.214844
1247.006836	50868.476563
1245.902344	50848.234375
1244.798828	50922.652344
1243.694336	50787.960938
1242.589844	50765.539063
1241.485352	50516.523438
1240.380859	50863.687500
1239.276367	50572.953125
1238.170898	50374.671875
1237.065430	50506.222656
1235.959961	50428.914063
1234.854492	50898.832031
1233.748047	50157.917969
1232.642578	50058.738281
1231.536133	50227.554688
1230.429688	50640.066406
1229.322266	50268.589844
1228.215820	50371.414063
1227.108398	50502.730469
1226.000977	49865.949219
1224.893555	50359.320313
1223.786133	50236.101563
1222.677734	50086.605469
1221.569336	50408.617188
1220.460938	50149.519531
1219.352539	50368.375000
1218.244141	50045.820313
1217.134766	49835.128906
1216.025391	50047.343750
1214.916016	50097.386719
1213.806641	50199.968750
1212.697266	50289.375000
1211.586914	50326.203125
1210.476563	50039.070313
1209.366211	50323.222656
1208.255859	50447.539063
1207.145508	50140.847656
1206.034180	50507.933594
1204.922852	50413.457031
1203.811523	50784.730469
1202.700195	50862.933594
1201.587891	50331.308594
1200.476563	50365.855469
1199.364258	50332.660156
1198.251953	50631.511719
1197.138672	50956.457031
1196.026367	50765.941406
1194.913086	51047.078125
1193.799805	50625.222656
1192.686523	50707.671875
1191.573242	50903.558594
1190.458984	50844.113281
1189.344727	50786.871094
1188.230469	50592.246094
1187.116211	50423.859375
1186.001953	50534.585938
1184.886719	50139.578125
1183.772461	49995.328125
1182.657227	49689.894531
1181.541016	50136.152344
1180.425781	49981.089844
1179.309570	50159.269531
1178.193359	49812.648438
1177.077148	49442.203125
1175.960938	49522.433594
1174.844727	49271.863281
1173.727539	49056.191406
1172.610352	49293.066406
1171.493164	49016.566406
1170.375977	48879.335938
1169.257813	48887.820313
1168.139648	48461.550781
1167.022461	48750.468750
1165.903320	48409.121094
1164.785156	48033.132813
1163.666992	48500.082031
1162.547852	48695.386719
1161.428711	48421.601563
1160.309570	48365.011719
1159.189453	48050.140625
1158.070313	47830.871094
1156.950195	48234.410156
1155.830078	48197.410156
1154.709961	48318.761719
1153.588867	48110.437500
1152.468750	48116.839844
1151.347656	47999.671875
1150.226563	47971.410156
1149.104492	48123.015625
1147.983398	48168.402344
1146.861328	47836.847656
1145.739258	48226.632813
1144.617188	48057.589844
1143.495117	48585.750000
1142.372070	48546.578125
1141.250000	48665.410156
1140.126953	48437.976563
1139.003906	49069.519531
1137.879883	49054.074219
1136.756836	49209.484375
1135.632813	48759.394531
1134.508789	48674.828125
1133.384766	49634.285156
1132.259766	49138.976563
1131.135742	49052.218750
1130.010742	49008.695313
1128.885742	48861.511719
1127.759766	49131.164063
1126.634766	49091.964844
1125.508789	49210.363281
1124.382813	48946.691406
1123.256836	49078.015625
1122.130859	48825.246094
1121.003906	48773.183594
1119.877930	48813.875000
1118.750977	48865.335938
1117.624023	48476.957031
1116.496094	48877.656250
1115.369141	48952.773438
1114.241211	48398.667969
1113.113281	48857.324219
1111.985352	48380.976563
1110.856445	48365.671875
1109.728516	48623.828125
1108.599609	48535.285156
1107.470703	47897.902344
1106.340820	48519.691406
1105.211914	48609.792969
1104.082031	48101.816406
1102.952148	48280.144531
1101.822266	48348.730469
1100.692383	48296.886719
1099.561523	48270.855469
1098.431641	48427.519531
1097.300781	48190.878906
1096.169922	48347.496094
1095.038086	48497.609375
1093.907227	48082.820313
1092.775391	47981.687500
1091.643555	47934.265625
1090.511719	47961.984375
1089.378906	48234.351563
1088.246094	47819.976563
1087.114258	47935.656250
1085.980469	47705.949219
1084.847656	47993.167969
1083.714844	47772.109375
1082.581055	47583.285156
1081.447266	47253.066406
1080.313477	47495.144531
1079.179688	47233.621094
1078.044922	47640.562500
1076.910156	47636.121094
1075.775391	47513.902344
1074.640625	47708.597656
1073.505859	47725.546875
1072.370117	47781.011719
1071.234375	47111.046875
1070.098633	47712.160156
1068.962891	47564.382813
1067.826172	47895.714844
1066.690430	47805.687500
1065.553711	47595.964844
1064.416992	47600.066406
1063.279297	47958.929688
1062.142578	47465.101563
1061.004883	47443.585938
1059.867188	47353.722656
1058.729492	47772.152344
1057.590820	47547.746094
1056.453125	47590.261719
1055.314453	47645.570313
1054.175781	47444.777344
1053.037109	48018.546875
1051.897461	47900.949219
1050.757813	47855.906250
1049.618164	47392.925781
1048.478516	47612.359375
1047.338867	47921.242188
1046.199219	47801.628906
1045.058594	47658.613281
1043.917969	47894.875000
1042.777344	47905.257813
1041.635742	48058.324219
1040.495117	48296.503906
1039.353516	47995.984375
1038.211914	47906.292969
1037.069336	47446.343750
1035.927734	47456.785156
1034.785156	47209.812500
1033.642578	47530.824219
1032.500000	47030.867188
1031.357422	47241.226563
1030.213867	46903.062500
1029.071289	47106.988281
1027.927734	46154.843750
1026.783203	46957.964844
1025.639648	46600.972656
1024.495117	46613.652344
1023.351563	47036.152344
1022.207031	46503.121094
1021.061523	47004.015625
1019.916992	46863.800781
1018.771484	46609.058594
1017.625977	46751.121094
1016.480469	46670.414063
1015.334961	46895.117188
1014.188477	46504.843750
1013.041992	46852.449219
1011.895508	47068.507813
1010.749023	46549.144531
1009.602539	46445.246094
1008.455078	46472.722656
1007.307617	46536.191406
1006.160156	46616.578125
1005.012695	46404.757813
1003.864258	46612.140625
1002.716797	46899.871094
1001.568359	47068.996094
1000.419922	47106.882813
999.270508	47256.867188
998.122070	46979.589844
996.972656	46622.062500
995.823242	47015.164063
994.673828	47150.246094
993.523438	46974.625000
992.373047	46921.613281
991.222656	46752.429688
990.072266	46971.937500
988.921875	47056.214844
987.771484	46903.984375
986.620117	47188.781250
985.468750	46941.601563
984.317383	47319.128906
983.165039	46924.324219
982.013672	46871.390625
980.861328	47217.082031
979.708984	47092.414063
978.555664	46957.250000
977.403320	47680.039063
976.250000	46836.695313
975.096680	47390.667969
973.943359	47255.539063
972.790039	47057.269531
971.635742	47530.863281
970.481445	47056.785156
969.327148	47029.171875
968.172852	46725.843750
967.018555	47007.640625
965.863281	47160.988281
964.708008	46767.343750
963.552734	46666.183594
962.397461	46781.656250
961.241211	46922.308594
960.084961	46512.171875
958.929688	46980.679688
957.772461	46480.320313
956.616211	46415.031250
955.458984	46599.722656
954.301758	46584.835938
953.144531	47004.593750
951.987305	46536.171875
950.830078	46487.710938
949.671875	46485.437500
948.513672	46313.210938
947.355469	46271.105469
946.196289	46216.429688
945.038086	45788.503906
943.878906	46297.929688
942.719727	46339.699219
941.560547	46060.785156
940.400391	46345.656250
939.241211	46096.171875
938.081055	46081.386719
936.919922	46579.710938
935.759766	46267.496094
934.599609	46074.726563
933.438477	46057.855469
932.277344	46534.878906
931.116211	46702.050781
929.954102	46599.292969
928.791992	46603.242188
927.630859	46559.089844
926.467773	46669.671875
925.305664	46604.617188
924.143555	46750.675781
922.980469	47053.410156
921.817383	46842.058594
920.654297	46891.902344
919.490234	47181.902344
918.327148	47321.445313
917.163086	47500.605469
915.999023	47926.007813
914.833984	47508.105469
913.669922	47808.148438
912.504883	48074.695313
911.339844	48186.792969
910.174805	48353.066406
909.008789	48721.531250
907.843750	48722.953125
906.677734	48864.015625
905.511719	48988.359375
904.345703	48908.464844
903.178711	48791.101563
902.011719	48444.679688
900.844727	48444.054688
899.677734	47841.738281
898.510742	47701.753906
897.342773	48088.363281
896.174805	47326.218750
895.006836	47771.003906
893.838867	47770.488281
892.670898	47738.781250
891.501953	47630.144531
890.333008	47403.054688
889.164063	47348.558594
887.994141	47792.832031
886.825195	47412.078125
885.655273	47257.890625
884.485352	47398.691406
883.315430	47113.734375
882.144531	47385.308594
880.973633	47445.042969
879.803711	47328.339844
878.631836	47124.527344
877.460938	47729.910156
876.289063	47787.453125
875.118164	47834.601563
873.945313	48072.500000
872.773438	48490.664063
871.601563	47986.300781
870.428711	48319.359375
869.255859	48144.652344
868.083008	48121.238281
866.910156	47625.593750
865.736328	48312.574219
864.562500	48595.558594
863.388672	48723.183594
862.214844	49078.425781
861.040039	48924.484375
859.866211	49186.449219
858.691406	49802.035156
857.516602	49583.925781
856.340820	48970.953125
855.166016	49021.832031
853.990234	48992.078125
852.814453	48480.812500
851.637695	48641.257813
850.461914	48733.472656
849.285156	48493.105469
848.108398	48523.355469
846.931641	48927.300781
845.754883	49479.726563
844.577148	49383.871094
843.399414	49581.070313
842.221680	50444.601563
841.043945	50115.515625
839.865234	51339.542969
838.687500	51699.125000
837.508789	51881.269531
836.329102	52582.781250
835.150391	52655.464844
833.970703	52876.472656
832.791992	52625.632813
831.611328	52566.437500
830.431641	52317.800781
829.251953	51568.921875
828.071289	50680.339844
826.890625	50393.078125
825.709961	49309.542969
824.528320	49172.832031
823.347656	49067.023438
822.166016	49131.957031
820.984375	48637.550781
819.801758	48361.253906
818.620117	48152.890625
817.437500	47757.582031
816.254883	47574.058594
815.072266	47166.675781
813.888672	47416.722656
812.706055	46927.371094
811.522461	46918.656250
810.338867	47156.285156
809.154297	46882.757813
807.970703	46416.429688
806.786133	46805.839844
805.601563	46592.011719
804.416992	46659.242188
803.231445	46568.550781
802.045898	46668.558594
800.861328	46543.046875
799.674805	46210.589844
798.489258	46230.687500
797.302734	46076.640625
796.117188	45609.261719
794.930664	45531.152344
793.743164	45897.386719
792.556641	45282.902344
791.369141	45346.121094
790.181641	45388.847656
788.994141	45499.078125
787.805664	45239.007813
786.618164	45414.664063
785.429688	45316.246094
784.241211	45226.039063
783.052734	45244.203125
781.863281	45143.820313
780.673828	45341.800781
779.484375	44653.058594
778.294922	44799.988281
777.105469	44330.113281
775.915039	44724.105469
774.724609	44809.691406
773.534180	44715.628906
772.343750	44933.824219
771.152344	44711.226563
769.960938	44558.074219
768.769531	45045.386719
767.578125	44829.007813
766.385742	44973.574219
765.194336	45266.886719
764.001953	45144.328125
762.808594	45303.011719
761.616211	45685.730469
760.422852	45982.757813
759.230469	45878.476563
758.037109	46342.316406
756.842773	46555.582031
755.649414	46555.050781
754.455078	46493.468750
753.260742	46849.003906
752.066406	46274.761719
750.871094	46727.824219
749.676758	46666.250000
748.481445	46342.421875
747.286133	45776.824219
746.089844	45697.160156
744.894531	45786.179688
743.698242	45308.351563
742.501953	44647.890625
741.304688	44913.726563
740.108398	44905.355469
738.911133	44401.648438
737.713867	44245.203125
736.516602	44393.210938
735.319336	44295.660156
734.121094	44534.882813
732.922852	44068.210938
731.724609	43942.382813
730.526367	43917.968750
729.327148	43938.152344
728.127930	43850.917969
726.928711	43792.082031
725.729492	44041.203125
724.530273	44278.074219
723.330078	43966.042969
722.129883	43803.957031
720.929688	43522.488281
719.728516	43512.343750
718.528320	43789.554688
717.327148	43951.335938
716.125977	44323.437500
714.923828	44220.105469
713.722656	44039.968750
712.520508	43241.242188
711.318359	43873.945313
710.116211	44079.980469
708.913086	43990.925781
707.710938	43701.898438
706.507813	44000.757813
705.304688	43978.402344
704.100586	43477.527344
702.897461	44224.414063
701.693359	43990.097656
700.489258	43830.531250
699.284180	44058.402344
698.080078	43894.843750
696.875000	43699.078125
695.669922	43862.312500
694.464844	43662.585938
693.258789	43851.968750
692.053711	44140.027344
690.847656	44299.019531
689.641602	43996.613281
688.434570	44256.277344
687.228516	44098.980469
686.021484	44360.542969
684.814453	44291.855469
683.607422	44164.824219
682.399414	44502.687500
681.191406	43890.781250
679.983398	44331.156250
678.775391	44045.316406
677.567383	44314.574219
676.358398	44042.917969
675.149414	44277.898438
673.940430	44446.468750
672.730469	44870.160156
671.521484	44443.902344
670.311523	44491.828125
669.101563	44497.562500
667.890625	44856.664063
666.680664	44757.937500
665.469727	44494.664063
664.258789	44249.546875
663.047852	44596.382813
661.835938	44547.914063
660.625000	44244.757813
659.413086	44166.292969
658.201172	44787.535156
656.988281	44560.667969
655.776367	44746.718750
654.563477	44594.074219
653.350586	44806.085938
652.136719	44673.515625
650.923828	44615.082031
649.709961	44656.781250
648.496094	44606.378906
647.282227	44754.136719
646.067383	44603.675781
644.852539	44819.394531
643.637695	44242.910156
642.422852	45090.593750
641.208008	44778.210938
639.992188	45149.664063
638.776367	44695.468750
637.560547	44609.152344
636.344727	45284.128906
635.127930	45193.738281
633.911133	45015.492188
632.694336	44931.171875
631.477539	45182.300781
630.259766	45175.824219
629.042969	45231.218750
627.825195	45172.851563
626.606445	45160.390625
625.388672	44752.984375
624.169922	45143.453125
622.951172	45041.269531
621.732422	45110.570313
620.513672	45016.402344
619.293945	44715.011719
618.074219	44866.019531
616.854492	44746.042969
615.634766	44500.636719
614.414063	44727.261719
613.193359	44651.175781
611.972656	44491.511719
610.751953	44990.664063
609.530273	45077.734375
608.309570	44760.906250
607.087891	44975.281250
605.866211	44881.320313
604.643555	44771.492188
603.420898	44498.683594
602.198242	44454.550781
600.975586	44444.218750
599.752930	44580.910156
598.529297	44763.238281
597.305664	44665.457031
596.082031	44226.164063
594.858398	44477.941406
593.633789	44721.675781
592.410156	44453.292969
591.185547	44740.589844
589.959961	44583.394531
588.735352	44384.601563
587.509766	44568.625000
586.284180	44542.402344
585.058594	44680.730469
583.832031	44489.988281
582.606445	44505.402344
581.379883	44532.699219
580.153320	44765.996094
578.925781	44799.171875
577.699219	44794.707031
576.471680	44738.773438
575.244141	45284.589844
574.015625	45602.613281
572.788086	44881.722656
571.559570	44978.128906
570.331055	45256.468750
569.101563	45416.046875
567.873047	45243.398438
566.643555	44815.808594
565.414063	45115.695313
564.184570	44864.156250
562.954102	44762.855469
561.724609	44902.582031
560.494141	44945.480469
559.263672	45002.179688
558.032227	44719.300781
556.800781	44949.714844
555.570313	44404.476563
554.337891	44802.570313
553.106445	45143.304688
551.874023	45156.500000
550.642578	44550.496094
549.409180	44938.394531
548.176758	44811.660156
546.944336	44645.554688
545.710938	44239.109375
544.477539	45093.683594
543.243164	45217.160156
542.009766	44533.152344
540.775391	44434.191406
539.541016	44973.097656
538.306641	44720.558594
537.071289	44474.019531
535.836914	44585.660156
534.601563	44699.218750
533.366211	44881.570313
532.129883	44963.566406
530.894531	45175.289063
529.658203	44712.707031
528.421875	44397.695313
527.184570	44831.429688
525.948242	44673.671875
524.710938	44396.160156
523.473633	44452.593750
522.235352	44842.789063
520.998047	44855.925781
519.759766	45059.437500
518.521484	44636.886719
517.283203	44718.718750
516.043945	44837.785156
514.804688	44892.085938
513.565430	44914.992188
512.326172	45257.441406
511.085938	44843.164063
509.846680	44864.097656
508.606445	44896.777344
507.366211	44939.238281
506.125000	44893.542969
504.883789	44887.031250
503.643555	44753.253906
502.401367	45298.781250
501.160156	44601.316406
499.917969	44919.675781
498.675781	44555.132813
497.433594	45217.636719
496.191406	44872.726563
494.948242	44686.320313
493.705078	44900.742188
492.461914	45087.718750
491.218750	45206.226563
489.975586	44945.644531
488.731445	45206.730469
487.487305	44905.226563
486.242188	44803.015625
484.998047	45054.210938
483.752930	45432.187500
482.507813	44847.878906
481.262695	45750.632813
480.016602	45252.320313
478.771484	44976.546875
477.525391	45436.078125
476.278320	45057.035156
475.032227	45155.734375
473.785156	45655.894531
472.538086	45914.226563
471.291016	45775.011719
470.043945	45795.574219
468.795898	45932.980469
467.547852	45949.609375
466.299805	46610.621094
465.051758	46272.859375
463.802734	46581.316406
462.553711	46270.921875
461.304688	46812.699219
460.055664	47089.753906
458.805664	47030.285156
457.555664	47474.394531
456.305664	47537.332031
455.055664	47596.359375
453.804688	47954.605469
452.553711	47980.500000
451.302734	48262.777344
450.051758	48653.703125
448.799805	49543.480469
447.548828	49600.105469
446.296875	49660.589844
445.043945	50322.621094
443.791992	50598.300781
442.539063	50503.367188
441.286133	50660.597656
440.033203	50460.972656
438.779297	49801.941406
437.526367	49123.777344
436.272461	48298.578125
435.017578	47696.515625
433.763672	47439.511719
432.508789	46855.269531
431.253906	46966.457031
429.999023	46765.875000
428.744141	46333.078125
427.488281	46529.453125
426.232422	46025.257813
424.976563	46620.160156
423.720703	46112.265625
422.463867	46006.828125
421.207031	46143.125000
419.950195	45873.394531
418.693359	46032.855469
417.435547	46192.253906
416.177734	46088.820313
414.919922	46331.207031
413.662109	46009.535156
412.403320	45828.949219
411.144531	45901.343750
409.885742	46336.605469
408.626953	46206.230469
407.367188	46180.097656
406.107422	46221.496094
404.847656	46224.296875
403.587891	46400.660156
402.327148	46033.230469
401.067383	46375.339844
