Data from AgNPs_APTES_FTO_UA_100uM_CRN_0uM_R6G_10uM_Scan_RamanShift__44__11-31-01-287.txt Node

Date: Wed Jun 29 11:31:01 BST 2022
User: TCL
Spectrometer: QEP01345
Trigger mode: 4
Integration Time (sec): 7.000000E0
Scans to average: 10
Electric dark correction enabled: true
Nonlinearity correction enabled: false
Boxcar width: 0
XAxis mode: Raman Shifts
Number of Pixels in Spectrum: 1044
>>>>>Begin Spectral Data<<<<<
46.04893	0.1
50.45542	0.5
54.85868	0.5
59.25871	1.1
63.6555	37.8
68.04907	41.8
72.43941	44.5
76.82654	46.6
81.21044	47.4
85.59113	54.8
89.96862	55.9
94.34289	56.9
98.71396	57.7
103.08183	65.9
107.4465	61.8
111.80798	61.1
116.16626	61
120.52136	60.1
124.87327	58.1
129.222	60.6
133.56755	55.3
137.90993	55.5
142.24913	55.6
146.58517	55.5
150.91804	54
155.24774	57.2
159.57429	63.1
163.89768	66.3
168.21792	75.5
172.53501	89.7
176.84895	106
181.15975	132.8
185.46741	172
189.77193	229.2
194.07331	295.8
198.37157	370.5
202.6667	450.2
206.9587	519
211.24758	606.1
215.53334	689.8
219.81599	777.9
224.09553	868
228.37195	974.4
232.64527	1083.3
236.91549	1215.3
241.18261	1304.1
245.44663	1406.5
249.70755	1479.7
253.96539	1541
258.22014	1588.1
262.4718	1631.2
266.72039	1649.2
270.96589	1662.7
275.20832	1651.5
279.44768	1612.3
283.68397	1587
287.91719	1557.5
292.14735	1542.1
296.37445	1555.6
300.59849	1589.4
304.81948	1641.4
309.03742	1685.2
313.25231	1690.8
317.46415	1644.4
321.67296	1568.7
325.87872	1494.9
330.08145	1483
334.28114	1480.3
338.47781	1496.2
342.67145	1536.7
346.86207	1580.3
351.04966	1645.1
355.23424	1723.6
359.4158	1773.4
363.59435	1824.1
367.76989	1836
371.94243	1847.7
376.11196	1844
380.27849	1860.4
384.44203	1851.2
388.60257	1836.8
392.76012	1842.2
396.91468	1856.2
401.06626	1887.4
405.21485	1909.7
409.36047	1884.6
413.50311	1822.3
417.64277	1766.3
421.77947	1733.6
425.9132	1712.3
430.04396	1703.9
434.17176	1720.8
438.2966	1732.3
442.41849	1768.8
446.53742	1801.8
450.6534	1826
454.76644	1854.3
458.87653	1856.7
462.98368	1854.5
467.08789	1837.7
471.18916	1831.6
475.2875	1811.6
479.38291	1793.1
483.4754	1779
487.56496	1782.9
491.6516	1789.6
495.73531	1802.3
499.81612	1800.6
503.89401	1798.6
507.96899	1806.4
512.04106	1807.6
516.11023	1838.9
520.1765	1852.6
524.23987	1859.3
528.30034	1865.6
532.35792	1849.9
536.41261	1836.3
540.46441	1807.5
544.51333	1788.9
548.55936	1782.6
552.60252	1803.6
556.64279	1802.6
560.6802	1837
564.71473	1850.2
568.7464	1895.1
572.7752	1914.7
576.80114	1864.3
580.82422	1815.6
584.84444	1813.4
588.86181	1841.4
592.87633	1864.1
596.888	1879.7
600.89682	1923.9
604.9028	2087.4
608.90594	2497.1
612.90624	2993
616.90371	2883
620.89834	2283.9
624.89015	2014.9
628.87913	2017.4
632.86528	2072.7
636.84862	2121.9
640.82913	2095.2
644.80683	2015.5
648.78172	1939.6
652.75379	1919.3
656.72306	1939
660.68952	1995.7
664.65319	1964.9
668.61405	1899.1
672.57211	1877.8
676.52738	1900.5
680.47986	1919.5
684.42955	1943.2
688.37646	1951.6
692.32058	1950.9
696.26192	1935.9
700.20048	1929.3
704.13626	1909.3
708.06928	1889
711.99952	1868.7
715.927	1868.5
719.85171	1880.5
723.77365	1881.6
727.69284	1887.3
731.60928	1877.5
735.52295	1884.8
739.43388	1876.4
743.34206	1858.7
747.24749	1861.9
751.15017	1862.8
755.05012	1846.8
758.94733	1915.9
762.8418	2070.8
766.73354	2297.4
770.62254	2542.9
774.50882	2665.2
778.39237	2599.9
782.27321	2367.3
786.15132	2125.5
790.02671	1980.3
793.89938	1915.7
797.76935	1891
801.6366	1884.1
805.50115	1904.1
809.36299	1906.1
813.22213	1922.9
817.07857	1908.8
820.93231	1881.9
824.78336	1855.1
828.63172	1851.6
832.47738	1841.7
836.32036	1842.3
840.16066	1829.9
843.99827	1831.9
847.8332	1834
851.66546	1820.7
855.49504	1828.1
859.32195	1829.1
863.1462	1835.3
866.96777	1833.1
870.78668	1829.4
874.60293	1841.9
878.41652	1858.6
882.22745	1886.4
886.03573	1899.2
889.84136	1905.3
893.64433	1896.9
897.44466	1867.3
901.24235	1856
905.0374	1834.7
908.8298	1811.9
912.61957	1800.5
916.40671	1800.7
920.19121	1809.5
923.97308	1814.2
927.75233	1837.6
931.52895	1856.5
935.30295	1846.3
939.07433	1809.4
942.84309	1788.6
946.60924	1774.3
950.37278	1760.7
954.13371	1772.5
957.89203	1762.3
961.64774	1764.8
965.40086	1747.1
969.15137	1742.8
972.89929	1735.4
976.64461	1729.5
980.38733	1738.2
984.12747	1727.5
987.86502	1733.6
991.59999	1738.9
995.33237	1759.5
999.06217	1790.9
1002.78939	1822.3
1006.51404	1860.4
1010.23611	1886.5
1013.95561	1897.7
1017.67255	1901
1021.38692	1887.1
1025.09872	1890.6
1028.80796	1882.8
1032.51465	1876.8
1036.21877	1873.9
1039.92035	1884.9
1043.61937	1872.7
1047.31584	1870.7
1051.00976	1851.2
1054.70114	1850.7
1058.38998	1845
1062.07627	1865.5
1065.76003	1862
1069.44126	1877.3
1073.11995	1899.2
1076.79611	1923.4
1080.46974	1956.2
1084.14085	1974.9
1087.80943	1999.9
1091.47549	1989
1095.13903	1967.3
1098.80005	1922.2
1102.45857	1882.5
1106.11456	1892.3
1109.76805	1904.1
1113.41903	1944.1
1117.06751	2009.5
1120.71348	2079.7
1124.35696	2167.9
1127.99793	2274.1
1131.63641	2293.6
1135.2724	2260.6
1138.90589	2204.2
1142.5369	2136.7
1146.16542	2062.2
1149.79145	2003.3
1153.415	1956.7
1157.03607	1930.9
1160.65467	1936.5
1164.27079	1969.5
1167.88443	2034.4
1171.49561	2131.1
1175.10432	2292
1178.71056	2519.9
1182.31434	2711.2
1185.91565	2773.1
1189.51451	2710.7
1193.11091	2580.9
1196.70485	2472.6
1200.29634	2409.4
1203.88538	2337.7
1207.47197	2224.5
1211.05612	2147.1
1214.63782	2081.3
1218.21708	2049.4
1221.79391	2011.8
1225.36829	2017.5
1228.94024	1993.2
1232.50976	1988.1
1236.07685	1988.6
1239.6415	1992.9
1243.20374	2000.7
1246.76355	2002
1250.32093	2016.8
1253.8759	2049.6
1257.42845	2084.4
1260.97859	2127.8
1264.52631	2188.4
1268.07163	2241.9
1271.61453	2290.2
1275.15503	2308.9
1278.69312	2330.1
1282.22882	2350.2
1285.76211	2368
1289.29301	2418.8
1292.82151	2485.7
1296.34761	2566.4
1299.87133	2680.1
1303.39266	2834.3
1306.9116	3121.6
1310.42815	3421.8
1313.94233	3540.9
1317.45412	3394
1320.96354	3134.5
1324.47058	2886.4
1327.97525	2692.9
1331.47754	2573.3
1334.97747	2531
1338.47502	2546.3
1341.97022	2624.9
1345.46305	2762.2
1348.95352	2952.2
1352.44163	3180.3
1355.92738	3497.4
1359.41078	3931.5
1362.89183	4337.6
1366.37053	4204.3
1369.84688	3606.9
1373.32088	3051.2
1376.79254	2734.2
1380.26186	2557.6
1383.72883	2453.2
1387.19347	2355.2
1390.65578	2272.9
1394.11575	2218.7
1397.57339	2164.4
1401.0287	2152.6
1404.48168	2129.1
1407.93234	2112
1411.38068	2103.5
1414.82669	2101.2
1418.27039	2097.8
1421.71177	2078.5
1425.15083	2049.1
1428.58758	2063
1432.02203	2077.6
1435.45416	2092.7
1438.88399	2115.2
1442.31151	2110.9
1445.73673	2126.5
1449.15965	2132.7
1452.58027	2141.4
1455.9986	2141.3
1459.41463	2150.3
1462.82837	2191.4
1466.23982	2209.8
1469.64898	2252.5
1473.05586	2258.3
1476.46045	2267.7
1479.86276	2261.8
1483.26279	2274.1
1486.66054	2311.8
1490.05602	2346.2
1493.44922	2440
1496.84016	2585.4
1500.22882	2829.2
1503.61521	3164.4
1506.99934	3554.1
1510.38121	3887.2
1513.76081	3929.8
1517.13816	3662
1520.51324	3203
1523.88607	2814
1527.25665	2565.3
1530.62498	2415.5
1533.99105	2336.7
1537.35488	2272.4
1540.71647	2254.9
1544.07581	2246.8
1547.4329	2252.8
1550.78776	2262.2
1554.14038	2279.6
1557.49077	2306.6
1560.83892	2340.2
1564.18484	2382.1
1567.52853	2469.6
1570.86999	2530.1
1574.20922	2568.8
1577.54624	2559.5
1580.88103	2475.7
1584.2136	2339.6
1587.54395	2238.9
1590.87208	2222.5
1594.19801	2292.6
1597.52172	2392.4
1600.84321	2433.8
1604.16251	2385.8
1607.47959	2295.3
1610.79447	2192.3
1614.10715	2085.8
1617.41763	2023.5
1620.7259	1968.5
1624.03199	1952.6
1627.33587	1943.6
1630.63757	1954.2
1633.93707	2013.3
1637.23439	2093.8
1640.52951	2243.8
1643.82246	2483.3
1647.11321	2742.7
1650.40179	2928.3
1653.68819	2871.2
1656.97241	2574.1
1660.25446	2259.9
1663.53433	2022.8
1666.81203	1897.8
1670.08756	1822.9
1673.36092	1781.2
1676.63211	1741.8
1679.90115	1710.1
1683.16801	1691.7
1686.43272	1673.4
1689.69527	1654.7
1692.95567	1640.2
1696.2139	1608.4
1699.46999	1592.9
1702.72392	1560.2
1705.97571	1545.6
1709.22535	1545.4
1712.47284	1532.4
1715.71819	1528.9
1718.96139	1525.6
1722.20246	1493.2
1725.44139	1484.1
1728.67818	1476.1
1731.91284	1461.3
1735.14537	1443.1
1738.37576	1440.8
1741.60403	1431.2
1744.83017	1430.2
1748.05418	1417.9
1751.27607	1402
1754.49584	1397.4
1757.71349	1386.2
1760.92903	1388.3
1764.14244	1388.7
1767.35375	1379
1770.56294	1376.4
1773.77002	1360.4
1776.97499	1349.6
1780.17785	1366.4
1783.37861	1357.2
1786.57727	1354
1789.77382	1352.2
1792.96828	1350.8
1796.16064	1345.5
1799.3509	1347.8
1802.53907	1353.9
1805.72514	1332.4
1808.90913	1332.8
1812.09102	1329.8
1815.27083	1327.3
1818.44856	1318.7
1821.6242	1332.4
1824.79776	1323.6
1827.96924	1311.7
1831.13864	1307.5
1834.30597	1304.2
1837.47122	1306.4
1840.6344	1296.5
1843.7955	1305.5
1846.95454	1303.3
1850.11151	1306.5
1853.26642	1299.7
1856.41926	1285.5
1859.57004	1298.9
1862.71876	1296.2
1865.86542	1294.4
1869.01003	1300.6
1872.15258	1288
1875.29308	1286.5
1878.43152	1288.8
1881.56792	1287.8
1884.70227	1279.7
1887.83457	1285.3
1890.96482	1275.1
1894.09304	1272.2
1897.21921	1280
1900.34335	1272.1
1903.46544	1278.1
1906.58551	1272.7
1909.70353	1274.9
1912.81953	1268.1
1915.93349	1274
1919.04543	1275.5
1922.15534	1268.4
1925.26322	1265.3
1928.36908	1259.8
1931.47292	1261.7
1934.57473	1257.1
1937.67453	1256.8
1940.77232	1248.5
1943.86808	1244.9
1946.96184	1245.6
1950.05358	1237.2
1953.14331	1226.9
1956.23103	1229.7
1959.31675	1232.6
1962.40046	1221
1965.48217	1218.3
1968.56188	1223.2
1971.63959	1213.8
1974.7153	1209.5
1977.78901	1196.3
1980.86073	1196.7
1983.93046	1199.9
1986.99819	1188.3
1990.06394	1191.1
1993.1277	1184.2
1996.18947	1177.6
1999.24925	1177.9
2002.30706	1171.7
2005.36288	1170.8
2008.41672	1169.6
2011.46859	1163.9
2014.51848	1163.2
2017.56639	1159.3
2020.61233	1150.2
2023.6563	1164
2026.6983	1148.9
2029.73833	1145.8
2032.7764	1138.1
2035.8125	1138.8
2038.84664	1141.8
2041.87881	1148.2
2044.90903	1140.6
2047.93729	1141.6
2050.96359	1130.5
2053.98794	1127.7
2057.01034	1129.9
2060.03078	1127.1
2063.04927	1132.3
2066.06582	1131.6
2069.08042	1122.5
2072.09307	1134.5
2075.10378	1123.2
2078.11255	1126.2
2081.11938	1127
2084.12426	1124.3
2087.12722	1133.1
2090.12824	1126.1
2093.12732	1126.3
2096.12447	1133.5
2099.11969	1125.9
2102.11299	1127.7
2105.10435	1134.8
2108.09379	1123.2
2111.08131	1126.4
2114.0669	1133.4
2117.05057	1132.5
2120.03233	1132.7
2123.01216	1128.2
2125.99008	1124
2128.96609	1130.6
2131.94018	1142
2134.91236	1129.4
2137.88263	1134.7
2140.851	1135.8
2143.81746	1129.9
2146.78201	1129.1
2149.74466	1138.1
2152.7054	1126.1
2155.66425	1130.4
2158.6212	1129
2161.57625	1130.4
2164.52941	1129.9
2167.48067	1123.7
2170.43004	1128
2173.37752	1121.5
2176.32311	1124.8
2179.26681	1120
2182.20863	1123.2
2185.14856	1124.1
2188.08661	1129.6
2191.02278	1130.6
2193.95707	1124.2
2196.88948	1124
2199.82001	1110
2202.74867	1113.7
2205.67545	1117.8
2208.60037	1107.1
2211.52341	1106.9
2214.44458	1115.4
2217.36388	1114.5
2220.28132	1116.5
2223.1969	1110
2226.11061	1109.4
2229.02246	1101.6
2231.93245	1097.8
2234.84058	1100
2237.74686	1097
2240.65128	1093
2243.55385	1093.2
2246.45456	1094.1
2249.35343	1099.6
2252.25044	1095
2255.14561	1091.2
2258.03893	1090.4
2260.93041	1090.5
2263.82004	1083.4
2266.70783	1077.7
2269.59378	1079.3
2272.4779	1074.4
2275.36017	1078.5
2278.24061	1072.4
2281.11922	1069.7
2283.996	1061.9
2286.87094	1072.7
2289.74405	1068.7
2292.61534	1067.2
2295.4848	1063.2
2298.35243	1062.4
2301.21824	1058.1
2304.08223	1062
2306.94439	1062.7
2309.80474	1051
2312.66327	1057.4
2315.51999	1062.1
2318.37489	1052.4
2321.22797	1052.9
2324.07925	1054.3
2326.92871	1050.1
2329.77637	1057.6
2332.62222	1051.7
2335.46626	1053.2
2338.3085	1038.3
2341.14893	1043.1
2343.98756	1052.6
2346.8244	1046.4
2349.65943	1046.4
2352.49267	1045.8
2355.32411	1046.6
2358.15376	1045.3
2360.98161	1044.9
2363.80768	1050.7
2366.63195	1053.1
2369.45444	1044.5
2372.27514	1051.2
2375.09405	1041.6
2377.91118	1042.8
2380.72652	1037.7
2383.54009	1045.6
2386.35187	1038.4
2389.16188	1038.6
2391.97011	1037.1
2394.77657	1031.2
2397.58125	1025.2
2400.38416	1026.1
2403.18529	1020.6
2405.98466	1017.4
2408.78226	1018.6
2411.57809	1016.6
2414.37216	1010.9
2417.16446	1012.6
2419.955	1016.9
2422.74378	1013.1
2425.5308	1008.2
2428.31606	1013.9
2431.09956	1003.1
2433.88131	1007.8
2436.6613	1015.6
2439.43954	1007.1
2442.21603	1005.6
2444.99077	1013.5
2447.76377	1014
2450.53501	1011.3
2453.30451	1006.3
2456.07226	1012.6
2458.83827	1005.9
2461.60254	997.3
2464.36507	1003.3
2467.12586	1001.6
2469.88492	996.4
2472.64224	997.4
2475.39782	1004.4
2478.15167	996.7
2480.90379	994.6
2483.65417	1014.6
2486.40283	1002.5
2489.14976	1008.9
2491.89497	1005.9
2494.63845	1003.5
2497.3802	1002.3
2500.12024	1001.8
2502.85855	1002.3
2505.59514	999.7
2508.33002	994.9
2511.06318	999.2
2513.79462	996.5
2516.52435	991.1
2519.25237	991.4
2521.97867	992.6
2524.70327	986.6
2527.42616	987.1
2530.14734	983.9
2532.86681	982.1
2535.58458	993.3
2538.30065	981.1
2541.01501	977.7
2543.72768	977.5
2546.43864	980.9
2549.14791	984.3
2551.85548	972.1
2554.56136	974.6
2557.26554	973.3
2559.96803	977.1
2562.66883	972.5
2565.36794	973
2568.06536	968.3
2570.7611	972.6
2573.45514	962.8
2576.14751	961.1
2578.83819	955.9
2581.52719	959.6
2584.21451	957.7
2586.90015	962.4
2589.58411	953
2592.2664	965.4
2594.94701	950.7
2597.62594	961.7
2600.30321	958.9
2602.9788	959.9
2605.65273	957.3
2608.32498	961.8
2610.99557	964.2
2613.66449	952.2
2616.33175	952
2618.99734	951.4
2621.66128	946
2624.32355	950.1
2626.98416	950.4
2629.64311	940.4
2632.30041	946.9
2634.95605	945.6
2637.61004	941.2
2640.26238	937.8
2642.91306	931
2645.56209	931.2
2648.20948	936.8
2650.85521	935.5
2653.4993	940.8
2656.14175	946
2658.78255	942
2661.42171	933.1
2664.05923	940.6
2666.6951	940
2669.32934	943.1
2671.96194	941.9
2674.59291	944.7
2677.22224	938.5
2679.84993	938.1
2682.476	945.1
2685.10043	933.9
2687.72324	945
2690.34441	948.4
2692.96396	937
2695.58188	938
2698.19818	935.7
2700.81285	945
2703.4259	939.5
2706.03733	919.3
2708.64714	923.6
2711.25533	933.3
2713.86191	933.1
2716.46687	931.8
2719.07021	938.6
2721.67194	939.3
2724.27206	939.3
2726.87057	940.9
2729.46747	942.1
2732.06276	946.2
2734.65644	945.2
2737.24852	944.2
2739.83899	941.3
2742.42786	949
2745.01513	936
2747.60079	945.4
2750.18486	935.5
2752.76733	933.8
2755.3482	936.9
2757.92747	926.9
2760.50515	936.2
2763.08123	921.2
2765.65573	932.4
2768.22863	932.6
2770.79994	930.2
2773.36967	931.4
2775.9378	931.3
2778.50435	928
2781.06932	932.1
2783.6327	932.8
2786.1945	933.9
2788.75471	926.7
2791.31335	929.1
2793.87041	926.4
2796.42589	930.3
2798.97979	928
2801.53212	926.3
2804.08288	922.1
2806.63206	917.1
2809.17967	919.2
2811.72571	920.1
2814.27018	918.9
2816.81308	924.7
2819.35442	920.2
2821.89419	921
2824.43239	917.4
2826.96904	920.5
2829.50412	917.2
2832.03763	918.1
2834.56959	913.6
2837.1	918.9
2839.62884	916.3
2842.15613	916
2844.68186	916.6
2847.20604	910.7
2849.72867	918.9
2852.24974	920.9
2854.76927	928.4
2857.28724	918.8
2859.80367	916.6
2862.31855	927.6
2864.83189	924
2867.34368	917.7
2869.85393	922.5
2872.36264	920.6
2874.8698	927.2
2877.37543	921.8
2879.87952	919.7
2882.38207	934.3
2884.88308	934.4
2887.38256	935.1
2889.88051	926.3
2892.37692	931.1
2894.8718	936.7
2897.36515	933.4
2899.85698	931.7
2902.34727	938.9
2904.83604	942
2907.32328	932.8
2909.809	944.3
2912.29319	942.5
2914.77587	939.1
2917.25702	943.9
2919.73665	943.7
2922.21476	939.3
2924.69136	941.1
2927.16644	940.8
2929.64	946.2
2932.11205	948.7
2934.58258	946.6
2937.05161	942.6
2939.51912	944.9
2941.98513	938.2
2944.44962	942.4
2946.91261	941
2949.37409	945.4
2951.83407	937.5
2954.29254	942.2
2956.74951	944.8
2959.20498	948.9
2961.65895	939.6
2964.11142	948.8
2966.56239	941.7
2969.01186	950
2971.45984	939.2
2973.90632	940.4
2976.35131	941.2
2978.7948	937.8
2981.23681	944.9
2983.67732	937.7
2986.11635	931.9
2988.55388	935.2
2990.98993	938.2
2993.4245	935.9
2995.85758	939.3
2998.28917	938.4
3000.71928	946
3003.14791	941.9
3005.57506	935.8
3008.00073	937.3
3010.42493	936.7
3012.84764	944.2
3015.26888	937.7
3017.68865	939.5
3020.10694	943.3
3022.52376	946.5
3024.9391	950.3
3027.35298	943.7
3029.76539	948.9
3032.17632	955.8
3034.5858	950.1
3036.9938	958.4
3039.40034	957.3
3041.80542	955.4
3044.20903	957.9
3046.61118	958.4
3049.01187	959.2
3051.4111	970.1
3053.80888	969.4
3056.20519	975.9
3058.60005	968.6
3060.99345	973.9
3063.3854	977.8
3065.7759	975.9
3068.16494	977.4
3070.55254	978.4
3072.93868	980.1
3075.32338	990.8
3077.70662	983.9
3080.08842	986.5
3082.46878	993.1
3084.84769	995.3
3087.22515	1004
3089.60118	1011.9
3091.97576	1016.5
3094.3489	1016.6
3096.72061	1010
3099.09087	1020.3
3101.4597	1037.1
3103.82709	1042.7
3106.19305	1049.6
3108.55757	1051.2
3110.92066	1050.8
3113.28232	1055.8
3115.64255	1055.9
3118.00134	1067.9
3120.35871	1075.4
3122.71466	1077.6
3125.06917	1078.2
3127.42226	1075.8
3129.77393	1099.5
3132.12417	1102.2
3134.47299	1101
3136.82039	1104.5
3139.16636	1119.9
3141.51092	1122.8
3143.85406	1129
3146.19579	1134
3148.53609	1142.6
3150.87499	1147.2
3153.21246	1156.9
3155.54853	1168.1
3157.88318	1179.3
3160.21642	1187.2
3162.54826	1195.8
3164.87868	1203.3
3167.2077	1208.8
3169.5353	1215.5
3171.86151	1220.5
3174.18631	1222.4
3176.5097	1237.6
3178.83169	1237.1
3181.15228	1233.1
3183.47147	1237.2
3185.78926	1255.9
3188.10565	1251.8
3190.42065	1260.5
3192.73424	1266.3
3195.04645	1270.2
3197.35725	1275.1
3199.66667	1277.4
3201.97469	1292
3204.28132	1291.4
3206.58656	1304.4
3208.8904	1303.6
3211.19287	1297.7
3213.49394	1312.9
3215.79363	1308.5
3218.09193	1330.5
3220.38884	1327.5
3222.68438	1325.5
3224.97853	1327.3
3227.2713	1339.3
3229.56269	1341.6
3231.8527	1337.4
3234.14133	1337.6
3236.42858	1329.7
3238.71446	1340.9
3240.99896	1335.6
3243.28209	1344.8
3245.56384	1338.5
3247.84423	1335.3
3250.12324	1334.6
3252.40088	1333.5
3254.67715	1328.9
3256.95205	1339.2
3259.22558	1338.4
3261.49775	1351.3
3263.76855	1341.7
3266.03799	1337.1
3268.30606	1344.7
3270.57277	1348.6
3272.83812	1340.2
3275.10211	1338
3277.36474	1347.2
3279.62601	1346
3281.88593	1331
3284.14448	1332.9
3286.40168	1346.3
3288.65753	1352
3290.91202	1348.5
3293.16516	1340
3295.41695	1345.3
3297.66738	1330.7
3299.91647	1325.2
3302.16421	1312.7
3304.4106	1307.7
3306.65564	1309.5
3308.89933	1297.7
3311.14169	1282.4
3313.38269	1275.5
3315.62236	1269.9
3317.86068	1265.1
3320.09766	1258.5
3322.3333	1245.9
3324.5676	1240
3326.80056	1216.4
3329.03219	1217.5
3331.26248	-0.2
3333.49143	0.8
3335.71905	-1.9
