Data from AgNPs_APTES_FTO_UA_100uM_CRN_0uM_R6G_10uM_Scan_RamanShift__18__11-00-41-251.txt Node

Date: Wed Jun 29 11:00:41 BST 2022
User: TCL
Spectrometer: QEP01345
Trigger mode: 4
Integration Time (sec): 7.000000E0
Scans to average: 10
Electric dark correction enabled: true
Nonlinearity correction enabled: false
Boxcar width: 0
XAxis mode: Raman Shifts
Number of Pixels in Spectrum: 1044
>>>>>Begin Spectral Data<<<<<
46.04893	-0.825
50.45542	0.575
54.85868	0.275
59.25871	2.275
63.6555	27.375
68.04907	30.575
72.43941	32.875
76.82654	32.975
81.21044	39.975
85.59113	42.475
89.96862	44.675
94.34289	47.975
98.71396	46.675
103.08183	48.875
107.4465	46.575
111.80798	48.375
116.16626	44.575
120.52136	45.975
124.87327	45.975
129.222	47.475
133.56755	43.375
137.90993	40.875
142.24913	43.075
146.58517	40.575
150.91804	42.675
155.24774	44.675
159.57429	46.375
163.89768	47.075
168.21792	52.375
172.53501	55.575
176.84895	69.875
181.15975	90.275
185.46741	107.775
189.77193	141.875
194.07331	178.575
198.37157	226.675
202.6667	277.375
206.9587	320.275
211.24758	372.275
215.53334	419.175
219.81599	473.675
224.09553	529.075
228.37195	587.375
232.64527	658.075
236.91549	726.775
241.18261	791.575
245.44663	860.975
249.70755	916.475
253.96539	964.175
258.22014	1010.475
262.4718	1027.575
266.72039	1022.175
270.96589	1017.375
275.20832	996.175
279.44768	965.675
283.68397	937.475
287.91719	912.975
292.14735	886.975
296.37445	859.175
300.59849	842.075
304.81948	832.575
309.03742	829.475
313.25231	815.075
317.46415	814.275
321.67296	796.975
325.87872	788.075
330.08145	780.975
334.28114	788.275
338.47781	781.775
342.67145	785.675
346.86207	801.775
351.04966	810.275
355.23424	832.175
359.4158	836.075
363.59435	842.075
367.76989	853.175
371.94243	864.875
376.11196	869.275
380.27849	874.775
384.44203	878.675
388.60257	873.175
392.76012	886.175
396.91468	899.875
401.06626	904.175
405.21485	919.375
409.36047	938.875
413.50311	1039.675
417.64277	1210.475
421.77947	1298.775
425.9132	1035.875
430.04396	907.375
434.17176	900.775
438.2966	909.075
442.41849	914.275
446.53742	924.075
450.6534	924.275
454.76644	942.475
458.87653	956.175
462.98368	956.075
467.08789	955.275
471.18916	956.975
475.2875	948.175
479.38291	963.175
483.4754	964.275
487.56496	957.375
491.6516	965.975
495.73531	970.175
499.81612	972.075
503.89401	965.175
507.96899	962.075
512.04106	959.675
516.11023	954.275
520.1765	953.575
524.23987	949.475
528.30034	944.175
532.35792	938.675
536.41261	943.575
540.46441	936.775
544.51333	926.175
548.55936	927.375
552.60252	939.175
556.64279	942.575
560.6802	939.375
564.71473	943.175
568.7464	946.975
572.7752	954.275
576.80114	947.875
580.82422	951.275
584.84444	958.475
588.86181	958.875
592.87633	969.275
596.888	957.975
600.89682	969.775
604.9028	987.275
608.90594	1037.975
612.90624	1107.175
616.90371	1106.375
620.89834	1031.775
624.89015	1005.375
628.87913	1011.475
632.86528	1019.175
636.84862	1027.875
640.82913	1028.075
644.80683	1023.875
648.78172	1018.675
652.75379	1016.375
656.72306	1015.475
660.68952	1022.475
664.65319	1032.475
668.61405	1032.175
672.57211	1042.275
676.52738	1061.475
680.47986	1068.675
684.42955	1091.975
688.37646	1119.975
692.32058	1110.775
696.26192	1075.175
700.20048	1058.875
704.13626	1041.075
708.06928	1035.075
711.99952	1027.175
715.927	1023.675
719.85171	1020.575
723.77365	1015.475
727.69284	1021.675
731.60928	1012.075
735.52295	1010.675
739.43388	1013.675
743.34206	1016.175
747.24749	1009.375
751.15017	1007.175
755.05012	983.475
758.94733	1017.675
762.8418	1041.475
766.73354	1062.675
770.62254	1095.175
774.50882	1115.575
778.39237	1109.875
782.27321	1075.675
786.15132	1054.775
790.02671	1039.575
793.89938	1027.875
797.76935	1027.675
801.6366	1030.675
805.50115	1045.075
809.36299	1034.675
813.22213	1040.475
817.07857	1036.075
820.93231	1027.275
824.78336	1021.375
828.63172	1004.975
832.47738	1003.275
836.32036	997.075
840.16066	1001.675
843.99827	1010.775
847.8332	998.675
851.66546	992.675
855.49504	997.975
859.32195	992.175
863.1462	997.875
866.96777	987.375
870.78668	1003.675
874.60293	993.075
878.41652	1003.375
882.22745	1010.575
886.03573	1014.875
889.84136	1022.375
893.64433	1015.975
897.44466	1023.675
901.24235	1021.775
905.0374	1028.875
908.8298	1021.775
912.61957	1024.075
916.40671	1030.475
920.19121	1035.775
923.97308	1040.275
927.75233	1044.975
931.52895	1052.475
935.30295	1032.375
939.07433	1039.175
942.84309	1022.275
946.60924	1014.975
950.37278	1019.575
954.13371	1014.575
957.89203	1011.975
961.64774	1010.375
965.40086	994.875
969.15137	991.975
972.89929	985.475
976.64461	981.775
980.38733	978.175
984.12747	985.275
987.86502	982.275
991.59999	985.075
995.33237	984.275
999.06217	983.775
1002.78939	996.775
1006.51404	1000.575
1010.23611	1001.175
1013.95561	1001.875
1017.67255	1005.775
1021.38692	1006.375
1025.09872	1007.075
1028.80796	1006.075
1032.51465	1013.875
1036.21877	1000.175
1039.92035	1003.275
1043.61937	997.275
1047.31584	1005.375
1051.00976	996.875
1054.70114	1012.375
1058.38998	1002.675
1062.07627	1000.375
1065.76003	1008.975
1069.44126	1014.475
1073.11995	1011.475
1076.79611	1018.875
1080.46974	1018.075
1084.14085	1020.675
1087.80943	1009.475
1091.47549	1016.275
1095.13903	1004.875
1098.80005	1004.575
1102.45857	996.475
1106.11456	991.375
1109.76805	987.375
1113.41903	996.175
1117.06751	1009.975
1120.71348	1030.675
1124.35696	1050.375
1127.99793	1070.975
1131.63641	1091.975
1135.2724	1093.575
1138.90589	1083.275
1142.5369	1081.275
1146.16542	1062.075
1149.79145	1042.175
1153.415	1032.975
1157.03607	1015.075
1160.65467	1013.975
1164.27079	1018.575
1167.88443	1022.175
1171.49561	1028.475
1175.10432	1054.575
1178.71056	1078.975
1182.31434	1107.975
1185.91565	1116.775
1189.51451	1117.475
1193.11091	1092.075
1196.70485	1097.475
1200.29634	1083.575
1203.88538	1075.475
1207.47197	1065.075
1211.05612	1060.775
1214.63782	1044.575
1218.21708	1041.275
1221.79391	1041.575
1225.36829	1043.675
1228.94024	1036.675
1232.50976	1040.875
1236.07685	1037.475
1239.6415	1041.475
1243.20374	1051.175
1246.76355	1051.875
1250.32093	1048.975
1253.8759	1049.675
1257.42845	1057.875
1260.97859	1059.375
1264.52631	1063.275
1268.07163	1069.475
1271.61453	1085.875
1275.15503	1094.575
1278.69312	1097.375
1282.22882	1102.275
1285.76211	1099.975
1289.29301	1122.475
1292.82151	1136.875
1296.34761	1142.475
1299.87133	1183.075
1303.39266	1203.975
1306.9116	1237.775
1310.42815	1282.775
1313.94233	1301.575
1317.45412	1275.675
1320.96354	1256.575
1324.47058	1230.675
1327.97525	1205.875
1331.47754	1210.675
1334.97747	1199.075
1338.47502	1204.475
1341.97022	1222.375
1345.46305	1249.175
1348.95352	1278.375
1352.44163	1316.875
1355.92738	1355.275
1359.41078	1404.175
1362.89183	1460.475
1366.37053	1471.675
1369.84688	1398.975
1373.32088	1328.175
1376.79254	1262.875
1380.26186	1242.675
1383.72883	1222.375
1387.19347	1206.375
1390.65578	1188.775
1394.11575	1177.475
1397.57339	1164.675
1401.0287	1163.675
1404.48168	1149.875
1407.93234	1141.775
1411.38068	1130.975
1414.82669	1133.875
1418.27039	1113.475
1421.71177	1110.275
1425.15083	1104.675
1428.58758	1084.175
1432.02203	1076.975
1435.45416	1065.775
1438.88399	1063.675
1442.31151	1054.275
1445.73673	1039.175
1449.15965	1026.375
1452.58027	1042.175
1455.9986	1044.275
1459.41463	1044.575
1462.82837	1034.875
1466.23982	1036.775
1469.64898	1054.075
1473.05586	1057.975
1476.46045	1054.875
1479.86276	1055.475
1483.26279	1068.775
1486.66054	1078.875
1490.05602	1081.675
1493.44922	1095.775
1496.84016	1120.175
1500.22882	1162.275
1503.61521	1198.975
1506.99934	1226.975
1510.38121	1277.275
1513.76081	1277.175
1517.13816	1240.775
1520.51324	1188.075
1523.88607	1142.575
1527.25665	1111.375
1530.62498	1090.775
1533.99105	1081.475
1537.35488	1084.875
1540.71647	1071.875
1544.07581	1089.475
1547.4329	1076.675
1550.78776	1091.575
1554.14038	1089.975
1557.49077	1089.075
1560.83892	1099.475
1564.18484	1102.075
1567.52853	1106.575
1570.86999	1123.275
1574.20922	1121.275
1577.54624	1113.775
1580.88103	1113.475
1584.2136	1092.575
1587.54395	1068.575
1590.87208	1057.775
1594.19801	1056.775
1597.52172	1050.375
1600.84321	1047.975
1604.16251	1032.675
1607.47959	1033.075
1610.79447	1031.575
1614.10715	1019.375
1617.41763	999.175
1620.7259	1000.875
1624.03199	998.375
1627.33587	981.475
1630.63757	984.375
1633.93707	969.675
1637.23439	976.075
1640.52951	985.175
1643.82246	998.575
1647.11321	1021.375
1650.40179	1030.875
1653.68819	1021.275
1656.97241	980.575
1660.25446	949.775
1663.53433	916.375
1666.81203	892.475
1670.08756	902.275
1673.36092	915.275
1676.63211	905.175
1679.90115	904.875
1683.16801	899.475
1686.43272	896.375
1689.69527	882.075
1692.95567	849.575
1696.2139	807.875
1699.46999	776.675
1702.72392	767.375
1705.97571	766.275
1709.22535	791.775
1712.47284	800.275
1715.71819	817.775
1718.96139	810.275
1722.20246	803.175
1725.44139	794.375
1728.67818	795.575
1731.91284	782.775
1735.14537	773.375
1738.37576	771.475
1741.60403	760.975
1744.83017	751.275
1748.05418	736.275
1751.27607	730.375
1754.49584	715.575
1757.71349	692.275
1760.92903	681.175
1764.14244	685.375
1767.35375	671.475
1770.56294	686.375
1773.77002	688.475
1776.97499	687.975
1780.17785	705.775
1783.37861	715.175
1786.57727	717.875
1789.77382	724.275
1792.96828	723.175
1796.16064	713.575
1799.3509	722.875
1802.53907	715.975
1805.72514	717.175
1808.90913	720.775
1812.09102	715.375
1815.27083	712.975
1818.44856	707.575
1821.6242	713.275
1824.79776	709.975
1827.96924	710.275
1831.13864	712.575
1834.30597	711.575
1837.47122	706.675
1840.6344	699.975
1843.7955	708.775
1846.95454	703.275
1850.11151	705.575
1853.26642	701.575
1856.41926	699.675
1859.57004	700.275
1862.71876	704.175
1865.86542	702.375
1869.01003	698.975
1872.15258	695.175
1875.29308	702.775
1878.43152	698.675
1881.56792	695.975
1884.70227	693.875
1887.83457	694.375
1890.96482	700.775
1894.09304	688.275
1897.21921	690.975
1900.34335	689.375
1903.46544	692.275
1906.58551	691.875
1909.70353	686.575
1912.81953	687.675
1915.93349	693.175
1919.04543	683.175
1922.15534	686.575
1925.26322	687.475
1928.36908	689.475
1931.47292	685.075
1934.57473	683.475
1937.67453	688.275
1940.77232	676.675
1943.86808	683.375
1946.96184	676.375
1950.05358	669.975
1953.14331	669.075
1956.23103	669.575
1959.31675	670.775
1962.40046	664.675
1965.48217	665.175
1968.56188	665.375
1971.63959	665.175
1974.7153	661.875
1977.78901	658.575
1980.86073	658.075
1983.93046	655.175
1986.99819	654.875
1990.06394	653.275
1993.1277	646.875
1996.18947	641.975
1999.24925	652.375
2002.30706	643.075
2005.36288	638.475
2008.41672	637.075
2011.46859	641.075
2014.51848	638.775
2017.56639	636.575
2020.61233	631.975
2023.6563	635.975
2026.6983	632.175
2029.73833	635.275
2032.7764	625.575
2035.8125	626.875
2038.84664	631.175
2041.87881	625.075
2044.90903	628.375
2047.93729	624.575
2050.96359	620.875
2053.98794	628.175
2057.01034	624.575
2060.03078	627.175
2063.04927	633.875
2066.06582	633.275
2069.08042	633.475
2072.09307	645.375
2075.10378	639.375
2078.11255	644.175
2081.11938	640.275
2084.12426	650.475
2087.12722	653.175
2090.12824	647.175
2093.12732	654.575
2096.12447	655.875
2099.11969	661.075
2102.11299	661.975
2105.10435	667.975
2108.09379	661.575
2111.08131	668.775
2114.0669	667.075
2117.05057	669.575
2120.03233	680.675
2123.01216	677.775
2125.99008	677.075
2128.96609	669.475
2131.94018	675.375
2134.91236	671.175
2137.88263	674.875
2140.851	675.275
2143.81746	670.375
2146.78201	665.175
2149.74466	675.575
2152.7054	662.175
2155.66425	659.275
2158.6212	664.675
2161.57625	661.375
2164.52941	664.275
2167.48067	657.075
2170.43004	663.375
2173.37752	656.875
2176.32311	653.975
2179.26681	657.175
2182.20863	662.475
2185.14856	653.975
2188.08661	658.075
2191.02278	654.575
2193.95707	649.875
2196.88948	639.975
2199.82001	639.375
2202.74867	636.375
2205.67545	641.175
2208.60037	631.675
2211.52341	637.075
2214.44458	626.475
2217.36388	627.275
2220.28132	625.075
2223.1969	633.975
2226.11061	625.475
2229.02246	630.775
2231.93245	627.575
2234.84058	618.275
2237.74686	625.775
2240.65128	616.375
2243.55385	616.375
2246.45456	617.875
2249.35343	623.275
2252.25044	617.475
2255.14561	623.775
2258.03893	616.775
2260.93041	604.875
2263.82004	607.275
2266.70783	604.575
2269.59378	607.975
2272.4779	603.675
2275.36017	607.275
2278.24061	608.575
2281.11922	603.675
2283.996	601.275
2286.87094	609.275
2289.74405	607.575
2292.61534	602.875
2295.4848	606.275
2298.35243	605.975
2301.21824	602.775
2304.08223	603.075
2306.94439	603.275
2309.80474	603.775
2312.66327	602.475
2315.51999	597.475
2318.37489	602.175
2321.22797	597.875
2324.07925	606.175
2326.92871	598.775
2329.77637	599.175
2332.62222	592.375
2335.46626	596.875
2338.3085	583.375
2341.14893	591.275
2343.98756	591.275
2346.8244	582.575
2349.65943	582.675
2352.49267	592.375
2355.32411	586.775
2358.15376	593.275
2360.98161	592.975
2363.80768	595.375
2366.63195	592.275
2369.45444	590.675
2372.27514	590.375
2375.09405	591.775
2377.91118	589.175
2380.72652	590.475
2383.54009	585.075
2386.35187	587.975
2389.16188	588.375
2391.97011	590.575
2394.77657	582.175
2397.58125	582.075
2400.38416	584.275
2403.18529	582.075
2405.98466	586.675
2408.78226	573.575
2411.57809	577.475
2414.37216	582.975
2417.16446	579.875
2419.955	580.775
2422.74378	577.675
2425.5308	580.475
2428.31606	577.475
2431.09956	575.775
2433.88131	569.575
2436.6613	571.075
2439.43954	577.775
2442.21603	575.075
2444.99077	575.475
2447.76377	579.675
2450.53501	576.875
2453.30451	575.375
2456.07226	574.875
2458.83827	578.475
2461.60254	570.475
2464.36507	575.675
2467.12586	580.475
2469.88492	571.875
2472.64224	574.975
2475.39782	564.675
2478.15167	550.675
2480.90379	568.075
2483.65417	567.675
2486.40283	572.075
2489.14976	572.175
2491.89497	568.275
2494.63845	559.075
2497.3802	562.475
2500.12024	559.975
2502.85855	560.675
2505.59514	569.375
2508.33002	565.375
2511.06318	569.275
2513.79462	563.975
2516.52435	571.275
2519.25237	567.675
2521.97867	568.375
2524.70327	563.375
2527.42616	570.575
2530.14734	561.675
2532.86681	557.975
2535.58458	571.975
2538.30065	560.775
2541.01501	558.575
2543.72768	568.975
2546.43864	556.775
2549.14791	562.375
2551.85548	562.675
2554.56136	558.175
2557.26554	563.575
2559.96803	555.675
2562.66883	551.675
2565.36794	558.875
2568.06536	557.475
2570.7611	553.975
2573.45514	554.875
2576.14751	555.375
2578.83819	550.775
2581.52719	550.975
2584.21451	554.575
2586.90015	544.575
2589.58411	546.675
2592.2664	546.175
2594.94701	551.275
2597.62594	551.475
2600.30321	554.475
2602.9788	550.175
2605.65273	545.475
2608.32498	537.275
2610.99557	543.475
2613.66449	539.975
2616.33175	546.275
2618.99734	543.375
2621.66128	542.875
2624.32355	540.675
2626.98416	541.775
2629.64311	542.175
2632.30041	545.075
2634.95605	545.675
2637.61004	545.975
2640.26238	539.675
2642.91306	542.775
2645.56209	538.775
2648.20948	536.975
2650.85521	538.775
2653.4993	535.975
2656.14175	544.475
2658.78255	536.675
2661.42171	534.175
2664.05923	537.075
2666.6951	543.075
2669.32934	544.775
2671.96194	542.175
2674.59291	540.075
2677.22224	542.275
2679.84993	541.675
2682.476	537.875
2685.10043	538.775
2687.72324	543.775
2690.34441	544.175
2692.96396	538.375
2695.58188	546.775
2698.19818	546.575
2700.81285	540.775
2703.4259	526.975
2706.03733	484.975
2708.64714	509.775
2711.25533	521.775
2713.86191	540.675
2716.46687	535.975
2719.07021	545.875
2721.67194	547.275
2724.27206	552.775
2726.87057	551.775
2729.46747	554.875
2732.06276	547.075
2734.65644	551.875
2737.24852	552.075
2739.83899	547.275
2742.42786	550.275
2745.01513	547.175
2747.60079	552.575
2750.18486	544.775
2752.76733	548.575
2755.3482	550.075
2757.92747	550.575
2760.50515	550.575
2763.08123	544.475
2765.65573	543.075
2768.22863	546.175
2770.79994	545.575
2773.36967	541.175
2775.9378	547.375
2778.50435	545.775
2781.06932	542.475
2783.6327	542.275
2786.1945	542.675
2788.75471	543.575
2791.31335	550.575
2793.87041	545.175
2796.42589	544.975
2798.97979	541.275
2801.53212	531.475
2804.08288	536.875
2806.63206	533.275
2809.17967	534.675
2811.72571	531.275
2814.27018	537.075
2816.81308	528.475
2819.35442	531.875
2821.89419	528.175
2824.43239	528.275
2826.96904	532.775
2829.50412	533.875
2832.03763	535.775
2834.56959	531.075
2837.1	535.175
2839.62884	535.775
2842.15613	532.475
2844.68186	529.475
2847.20604	526.075
2849.72867	529.475
2852.24974	532.375
2854.76927	526.275
2857.28724	513.675
2859.80367	521.375
2862.31855	532.275
2864.83189	528.875
2867.34368	532.075
2869.85393	531.175
2872.36264	532.375
2874.8698	533.675
2877.37543	538.875
2879.87952	533.475
2882.38207	537.975
2884.88308	540.875
2887.38256	543.275
2889.88051	533.575
2892.37692	545.875
2894.8718	541.075
2897.36515	550.375
2899.85698	546.975
2902.34727	546.575
2904.83604	547.175
2907.32328	547.875
2909.809	553.875
2912.29319	559.275
2914.77587	551.275
2917.25702	562.875
2919.73665	552.875
2922.21476	559.075
2924.69136	553.375
2927.16644	562.775
2929.64	565.375
2932.11205	566.675
2934.58258	560.775
2937.05161	565.975
2939.51912	559.075
2941.98513	562.675
2944.44962	565.875
2946.91261	561.375
2949.37409	563.975
2951.83407	567.075
2954.29254	566.575
2956.74951	567.175
2959.20498	564.375
2961.65895	563.575
2964.11142	566.775
2966.56239	563.775
2969.01186	568.075
2971.45984	567.575
2973.90632	564.775
2976.35131	564.375
2978.7948	567.175
2981.23681	570.275
2983.67732	566.175
2986.11635	569.575
2988.55388	563.775
2990.98993	564.775
2993.4245	572.175
2995.85758	571.775
2998.28917	572.275
3000.71928	581.375
3003.14791	572.075
3005.57506	570.875
3008.00073	571.875
3010.42493	573.575
3012.84764	577.775
3015.26888	579.175
3017.68865	583.875
3020.10694	582.675
3022.52376	587.975
3024.9391	582.275
3027.35298	585.875
3029.76539	591.375
3032.17632	589.275
3034.5858	589.775
3036.9938	597.175
3039.40034	595.775
3041.80542	605.475
3044.20903	607.075
3046.61118	602.475
3049.01187	606.075
3051.4111	614.575
3053.80888	613.275
3056.20519	616.475
3058.60005	621.675
3060.99345	626.175
3063.3854	620.575
3065.7759	624.075
3068.16494	627.675
3070.55254	638.275
3072.93868	635.675
3075.32338	637.075
3077.70662	641.775
3080.08842	643.675
3082.46878	644.475
3084.84769	644.375
3087.22515	652.275
3089.60118	655.375
3091.97576	666.175
3094.3489	668.075
3096.72061	714.775
3099.09087	716.075
3101.4597	687.175
3103.82709	690.875
3106.19305	694.875
3108.55757	702.175
3110.92066	701.175
3113.28232	711.975
3115.64255	718.275
3118.00134	718.975
3120.35871	726.875
3122.71466	729.975
3125.06917	729.675
3127.42226	732.075
3129.77393	733.175
3132.12417	739.875
3134.47299	743.575
3136.82039	753.275
3139.16636	758.675
3141.51092	764.975
3143.85406	770.075
3146.19579	782.475
3148.53609	781.175
3150.87499	789.675
3153.21246	796.475
3155.54853	804.375
3157.88318	808.675
3160.21642	824.875
3162.54826	828.275
3164.87868	839.675
3167.2077	844.875
3169.5353	841.675
3171.86151	855.375
3174.18631	852.075
3176.5097	862.875
3178.83169	861.575
3181.15228	871.375
3183.47147	878.475
3185.78926	878.875
3188.10565	890.175
3190.42065	891.475
3192.73424	899.375
3195.04645	901.275
3197.35725	911.575
3199.66667	902.075
3201.97469	917.275
3204.28132	922.875
3206.58656	921.475
3208.8904	922.275
3211.19287	933.975
3213.49394	929.375
3215.79363	946.475
3218.09193	946.175
3220.38884	943.575
3222.68438	933.475
3224.97853	939.275
3227.2713	943.175
3229.56269	955.875
3231.8527	958.675
3234.14133	958.775
3236.42858	954.975
3238.71446	952.575
3240.99896	961.575
3243.28209	964.775
3245.56384	951.375
3247.84423	960.875
3250.12324	956.875
3252.40088	957.775
3254.67715	961.975
3256.95205	962.975
3259.22558	967.275
3261.49775	959.675
3263.76855	965.675
3266.03799	967.375
3268.30606	971.475
3270.57277	969.275
3272.83812	969.275
3275.10211	962.375
3277.36474	969.675
3279.62601	966.575
3281.88593	967.175
3284.14448	971.075
3286.40168	967.175
3288.65753	973.175
3290.91202	965.075
3293.16516	962.775
3295.41695	961.275
3297.66738	964.175
3299.91647	953.475
3302.16421	944.475
3304.4106	942.675
3306.65564	935.275
3308.89933	940.175
3311.14169	923.275
3313.38269	917.375
3315.62236	905.475
3317.86068	912.475
3320.09766	906.875
3322.3333	897.475
3324.5676	888.975
3326.80056	868.875
3329.03219	866.475
3331.26248	-0.725
3333.49143	0.975
3335.71905	-2.325
